Thayer School of Engineering        Instron 4442 Mechanical Testing System
7/9/2018 2:41:34 AM

  Force (N)	Extension (mm)	Not Used	Not Used	Not Used	     Hour	    Minute	    Second
    0.1297 	    2.0500 	    2.0000 	   42.0000 	    1.2157 
    0.4196 	    2.1160 	    2.0000 	   42.0000 	    1.2487 
    0.5417 	    2.2420 	    2.0000 	   42.0000 	    1.3117 
    0.5112 	    2.3580 	    2.0000 	   42.0000 	    1.3697 
    0.5112 	    2.4640 	    2.0000 	   42.0000 	    1.4227 
    0.5112 	    2.5260 	    2.0000 	   42.0000 	    1.4537 
    0.4501 	    2.5860 	    2.0000 	   42.0000 	    1.4837 
    0.3281 	    2.6560 	    2.0000 	   42.0000 	    1.5187 
    0.5722 	    2.7700 	    2.0000 	   42.0000 	    1.5757 
    0.4807 	    2.8800 	    2.0000 	   42.0000 	    1.6307 
    0.4349 	    2.9820 	    2.0000 	   42.0000 	    1.6817 
    0.3891 	    3.0920 	    2.0000 	   42.0000 	    1.7367 
    0.4349 	    3.1980 	    2.0000 	   42.0000 	    1.7897 
    0.4501 	    3.2640 	    2.0000 	   42.0000 	    1.8227 
    0.5570 	    3.3300 	    2.0000 	   42.0000 	    1.8557 
    0.3586 	    3.4480 	    2.0000 	   42.0000 	    1.9147 
    0.2976 	    3.5520 	    2.0000 	   42.0000 	    1.9667 
    0.3738 	    3.6640 	    2.0000 	   42.0000 	    2.0227 
    0.4807 	    3.7660 	    2.0000 	   42.0000 	    2.0738 
    0.4349 	    3.8640 	    2.0000 	   42.0000 	    2.1228 
    0.5112 	    3.9640 	    2.0000 	   42.0000 	    2.1728 
    0.5570 	    4.0620 	    2.0000 	   42.0000 	    2.2218 
    0.5570 	    4.1700 	    2.0000 	   42.0000 	    2.2758 
    0.6332 	    4.2760 	    2.0000 	   42.0000 	    2.3288 
    0.4349 	    4.3340 	    2.0000 	   42.0000 	    2.3578 
    0.5875 	    4.3960 	    2.0000 	   42.0000 	    2.3888 
    0.3586 	    4.5140 	    2.0000 	   42.0000 	    2.4478 
    0.4654 	    4.6180 	    2.0000 	   42.0000 	    2.4998 
    0.5417 	    4.7280 	    2.0000 	   42.0000 	    2.5548 
    0.4044 	    4.8320 	    2.0000 	   42.0000 	    2.6068 
    0.3281 	    4.9000 	    2.0000 	   42.0000 	    2.6408 
    0.6027 	    5.0220 	    2.0000 	   42.0000 	    2.7018 
    0.4807 	    5.1280 	    2.0000 	   42.0000 	    2.7548 
    0.4959 	    5.2280 	    2.0000 	   42.0000 	    2.8048 
    0.5112 	    5.3280 	    2.0000 	   42.0000 	    2.8548 
    0.3433 	    5.3960 	    2.0000 	   42.0000 	    2.8888 
    0.6332 	    5.4640 	    2.0000 	   42.0000 	    2.9228 
    0.3738 	    5.5820 	    2.0000 	   42.0000 	    2.9818 
    0.4044 	    5.6840 	    2.0000 	   42.0000 	    3.0328 
    0.6485 	    5.7940 	    2.0000 	   42.0000 	    3.0878 
    0.3433 	    5.8640 	    2.0000 	   42.0000 	    3.1228 
    0.6638 	    5.9860 	    2.0000 	   42.0000 	    3.1838 
    0.4807 	    6.0920 	    2.0000 	   42.0000 	    3.2368 
    0.4196 	    6.2080 	    2.0000 	   42.0000 	    3.2948 
    0.4196 	    6.3260 	    2.0000 	   42.0000 	    3.3538 
    0.4501 	    6.3940 	    2.0000 	   42.0000 	    3.3878 
    0.5417 	    6.4580 	    2.0000 	   42.0000 	    3.4198 
    0.6027 	    6.5220 	    2.0000 	   42.0000 	    3.4518 
    0.5722 	    6.5840 	    2.0000 	   42.0000 	    3.4828 
    0.5570 	    6.6460 	    2.0000 	   42.0000 	    3.5138 
    0.5112 	    6.7120 	    2.0000 	   42.0000 	    3.5468 
    0.5417 	    6.7720 	    2.0000 	   42.0000 	    3.5768 
    0.6180 	    6.8380 	    2.0000 	   42.0000 	    3.6098 
    0.5417 	    6.9040 	    2.0000 	   42.0000 	    3.6428 
    0.4959 	    6.9700 	    2.0000 	   42.0000 	    3.6758 
    0.6180 	    7.0320 	    2.0000 	   42.0000 	    3.7068 
    0.5112 	    7.0940 	    2.0000 	   42.0000 	    3.7378 
    0.6790 	    7.1600 	    2.0000 	   42.0000 	    3.7708 
    0.5570 	    7.2280 	    2.0000 	   42.0000 	    3.8049 
    0.4959 	    7.2960 	    2.0000 	   42.0000 	    3.8389 
    0.4807 	    7.3600 	    2.0000 	   42.0000 	    3.8709 
    0.5112 	    7.4220 	    2.0000 	   42.0000 	    3.9019 
    0.6485 	    7.4880 	    2.0000 	   42.0000 	    3.9349 
    0.4959 	    7.5500 	    2.0000 	   42.0000 	    3.9659 
    0.4654 	    7.6120 	    2.0000 	   42.0000 	    3.9969 
    0.5417 	    7.6760 	    2.0000 	   42.0000 	    4.0289 
    0.5417 	    7.7420 	    2.0000 	   42.0000 	    4.0619 
    0.4959 	    7.8060 	    2.0000 	   42.0000 	    4.0939 
    0.5112 	    7.8720 	    2.0000 	   42.0000 	    4.1269 
    0.4044 	    7.9400 	    2.0000 	   42.0000 	    4.1609 
    0.5112 	    8.0080 	    2.0000 	   42.0000 	    4.1949 
    0.5570 	    8.0720 	    2.0000 	   42.0000 	    4.2269 
    0.4501 	    8.1460 	    2.0000 	   42.0000 	    4.2639 
    0.4349 	    8.2100 	    2.0000 	   42.0000 	    4.2959 
    0.4044 	    8.2780 	    2.0000 	   42.0000 	    4.3299 
    0.6180 	    8.3460 	    2.0000 	   42.0000 	    4.3639 
    0.4959 	    8.4140 	    2.0000 	   42.0000 	    4.3979 
    0.5112 	    8.4760 	    2.0000 	   42.0000 	    4.4289 
    0.6027 	    8.5420 	    2.0000 	   42.0000 	    4.4619 
    0.5112 	    8.6020 	    2.0000 	   42.0000 	    4.4919 
    0.4959 	    8.6660 	    2.0000 	   42.0000 	    4.5239 
    0.4959 	    8.7260 	    2.0000 	   42.0000 	    4.5539 
    0.3433 	    8.7860 	    2.0000 	   42.0000 	    4.5839 
    0.4654 	    8.8500 	    2.0000 	   42.0000 	    4.6159 
    0.6180 	    8.9380 	    2.0000 	   42.0000 	    4.6599 
    0.6180 	    8.9980 	    2.0000 	   42.0000 	    4.6899 
    0.6485 	    9.0640 	    2.0000 	   42.0000 	    4.7229 
    0.4044 	    9.1240 	    2.0000 	   42.0000 	    4.7529 
    0.6485 	    9.1900 	    2.0000 	   42.0000 	    4.7859 
    0.5722 	    9.2520 	    2.0000 	   42.0000 	    4.8169 
    0.5570 	    9.3100 	    2.0000 	   42.0000 	    4.8459 
    0.2518 	    9.3780 	    2.0000 	   42.0000 	    4.8799 
    0.4654 	    9.4420 	    2.0000 	   42.0000 	    4.9119 
    0.6180 	    9.5040 	    2.0000 	   42.0000 	    4.9429 
    0.5417 	    9.5700 	    2.0000 	   42.0000 	    4.9759 
    0.4501 	    9.6340 	    2.0000 	   42.0000 	    5.0079 
    0.6485 	    9.6940 	    2.0000 	   42.0000 	    5.0379 
    0.6485 	    9.7620 	    2.0000 	   42.0000 	    5.0719 
    0.1907 	    9.8220 	    2.0000 	   42.0000 	    5.1019 
    0.4349 	    9.8880 	    2.0000 	   42.0000 	    5.1349 
    0.4349 	   10.0100 	    2.0000 	   42.0000 	    5.1959 
    0.6485 	   10.0700 	    2.0000 	   42.0000 	    5.2259 
    0.6027 	   10.1400 	    2.0000 	   42.0000 	    5.2609 
    0.5417 	   10.2000 	    2.0000 	   42.0000 	    5.2909 
    0.5875 	   10.2660 	    2.0000 	   42.0000 	    5.3239 
    0.5417 	   10.3340 	    2.0000 	   42.0000 	    5.3579 
    0.6638 	   10.3940 	    2.0000 	   42.0000 	    5.3879 
    0.4959 	   10.4540 	    2.0000 	   42.0000 	    5.4179 
    0.2976 	   10.5140 	    2.0000 	   42.0000 	    5.4479 
    0.4959 	   10.5740 	    2.0000 	   42.0000 	    5.4779 
    0.6180 	   10.6340 	    2.0000 	   42.0000 	    5.5079 
    0.5112 	   10.6940 	    2.0000 	   42.0000 	    5.5380 
    0.5570 	   10.7600 	    2.0000 	   42.0000 	    5.5710 
    0.6180 	   10.8200 	    2.0000 	   42.0000 	    5.6010 
    0.5875 	   10.8780 	    2.0000 	   42.0000 	    5.6300 
    0.5417 	   10.9460 	    2.0000 	   42.0000 	    5.6640 
    0.5722 	   11.0080 	    2.0000 	   42.0000 	    5.6950 
    0.6027 	   11.0700 	    2.0000 	   42.0000 	    5.7260 
    0.5112 	   11.1360 	    2.0000 	   42.0000 	    5.7590 
    0.3128 	   11.1980 	    2.0000 	   42.0000 	    5.7900 
    0.4959 	   11.2600 	    2.0000 	   42.0000 	    5.8210 
    0.5264 	   11.3200 	    2.0000 	   42.0000 	    5.8510 
    0.5264 	   11.3840 	    2.0000 	   42.0000 	    5.8830 
    0.6332 	   11.4420 	    2.0000 	   42.0000 	    5.9110 
    0.6027 	   11.5000 	    2.0000 	   42.0000 	    5.9410 
    0.6638 	   11.5700 	    2.0000 	   42.0000 	    5.9760 
    0.7401 	   11.6300 	    2.0000 	   42.0000 	    6.0060 
    0.5417 	   11.6920 	    2.0000 	   42.0000 	    6.0370 
    0.3586 	   11.8160 	    2.0000 	   42.0000 	    6.0990 
    0.5570 	   11.8740 	    2.0000 	   42.0000 	    6.1280 
    0.4807 	   11.9420 	    2.0000 	   42.0000 	    6.1620 
    0.5875 	   12.0060 	    2.0000 	   42.0000 	    6.1940 
    0.5264 	   12.0680 	    2.0000 	   42.0000 	    6.2250 
    0.5264 	   12.1360 	    2.0000 	   42.0000 	    6.2590 
    0.4501 	   12.1980 	    2.0000 	   42.0000 	    6.2900 
    0.6332 	   12.2600 	    2.0000 	   42.0000 	    6.3210 
    0.6943 	   12.3180 	    2.0000 	   42.0000 	    6.3500 
    0.6485 	   12.3840 	    2.0000 	   42.0000 	    6.3830 
    0.6180 	   12.4420 	    2.0000 	   42.0000 	    6.4120 
    0.5417 	   12.5000 	    2.0000 	   42.0000 	    6.4410 
    0.5112 	   12.5640 	    2.0000 	   42.0000 	    6.4730 
    0.6180 	   12.6240 	    2.0000 	   42.0000 	    6.5030 
    0.5417 	   12.6840 	    2.0000 	   42.0000 	    6.5330 
    0.5875 	   12.7520 	    2.0000 	   42.0000 	    6.5670 
    0.6485 	   12.8100 	    2.0000 	   42.0000 	    6.5960 
    0.5417 	   12.8720 	    2.0000 	   42.0000 	    6.6270 
    0.6180 	   12.9400 	    2.0000 	   42.0000 	    6.6610 
    0.7095 	   13.0000 	    2.0000 	   42.0000 	    6.6910 
    0.5570 	   13.0580 	    2.0000 	   42.0000 	    6.7200 
    0.5875 	   13.1260 	    2.0000 	   42.0000 	    6.7540 
    0.6180 	   13.1860 	    2.0000 	   42.0000 	    6.7840 
    0.5417 	   13.2460 	    2.0000 	   42.0000 	    6.8140 
    0.6027 	   13.3080 	    2.0000 	   42.0000 	    6.8450 
    0.5570 	   13.3760 	    2.0000 	   42.0000 	    6.8790 
    0.6943 	   13.4400 	    2.0000 	   42.0000 	    6.9110 
    0.5722 	   13.4980 	    2.0000 	   42.0000 	    6.9400 
    0.4501 	   13.5660 	    2.0000 	   42.0000 	    6.9740 
    0.6180 	   13.6280 	    2.0000 	   42.0000 	    7.0050 
    0.7248 	   13.6860 	    2.0000 	   42.0000 	    7.0340 
    0.5417 	   13.7560 	    2.0000 	   42.0000 	    7.0690 
    0.5570 	   13.8160 	    2.0000 	   42.0000 	    7.0990 
    0.5722 	   13.8780 	    2.0000 	   42.0000 	    7.1300 
    0.6485 	   13.9460 	    2.0000 	   42.0000 	    7.1640 
    0.4959 	   14.0100 	    2.0000 	   42.0000 	    7.1960 
    0.3433 	   14.0720 	    2.0000 	   42.0000 	    7.2270 
    0.6180 	   14.1420 	    2.0000 	   42.0000 	    7.2620 
    0.4196 	   14.2060 	    2.0000 	   42.0000 	    7.2941 
    0.4501 	   14.2680 	    2.0000 	   42.0000 	    7.3251 
    0.6332 	   14.3340 	    2.0000 	   42.0000 	    7.3581 
    0.6180 	   14.3960 	    2.0000 	   42.0000 	    7.3891 
    0.6027 	   14.4580 	    2.0000 	   42.0000 	    7.4201 
    0.6638 	   14.5180 	    2.0000 	   42.0000 	    7.4501 
    0.5264 	   14.5840 	    2.0000 	   42.0000 	    7.4831 
    0.5875 	   14.6500 	    2.0000 	   42.0000 	    7.5161 
    0.6638 	   14.7100 	    2.0000 	   42.0000 	    7.5461 
    0.6180 	   14.7740 	    2.0000 	   42.0000 	    7.5781 
    0.6180 	   14.8360 	    2.0000 	   42.0000 	    7.6091 
    0.7401 	   14.9040 	    2.0000 	   42.0000 	    7.6431 
    0.7095 	   14.9620 	    2.0000 	   42.0000 	    7.6721 
    0.6943 	   15.0200 	    2.0000 	   42.0000 	    7.7011 
    0.7248 	   15.0840 	    2.0000 	   42.0000 	    7.7331 
    0.6180 	   15.1520 	    2.0000 	   42.0000 	    7.7671 
    0.7401 	   15.2140 	    2.0000 	   42.0000 	    7.7981 
    0.6638 	   15.2760 	    2.0000 	   42.0000 	    7.8291 
    0.6638 	   15.3460 	    2.0000 	   42.0000 	    7.8641 
    0.7858 	   15.4040 	    2.0000 	   42.0000 	    7.8931 
    0.5875 	   15.4620 	    2.0000 	   42.0000 	    7.9221 
    0.6332 	   15.5340 	    2.0000 	   42.0000 	    7.9581 
    0.7553 	   15.5940 	    2.0000 	   42.0000 	    7.9881 
    0.8469 	   15.6540 	    2.0000 	   42.0000 	    8.0181 
    0.6027 	   15.7120 	    2.0000 	   42.0000 	    8.0471 
    0.6790 	   15.8460 	    2.0000 	   42.0000 	    8.1141 
    0.6638 	   15.9020 	    2.0000 	   42.0000 	    8.1421 
    0.7553 	   15.9720 	    2.0000 	   42.0000 	    8.1771 
    0.6638 	   16.0360 	    2.0000 	   42.0000 	    8.2091 
    0.6332 	   16.0960 	    2.0000 	   42.0000 	    8.2391 
    0.6027 	   16.1640 	    2.0000 	   42.0000 	    8.2731 
    0.6943 	   16.2260 	    2.0000 	   42.0000 	    8.3041 
    0.7095 	   16.2860 	    2.0000 	   42.0000 	    8.3341 
    0.6027 	   16.3580 	    2.0000 	   42.0000 	    8.3701 
    0.7095 	   16.4200 	    2.0000 	   42.0000 	    8.4011 
    0.8011 	   16.4820 	    2.0000 	   42.0000 	    8.4321 
    0.8316 	   16.5500 	    2.0000 	   42.0000 	    8.4661 
    0.6790 	   16.6120 	    2.0000 	   42.0000 	    8.4971 
    0.4959 	   16.6760 	    2.0000 	   42.0000 	    8.5291 
    0.5875 	   16.7460 	    2.0000 	   42.0000 	    8.5641 
    0.7706 	   16.8100 	    2.0000 	   42.0000 	    8.5961 
    0.7858 	   16.8760 	    2.0000 	   42.0000 	    8.6291 
    0.6180 	   16.9460 	    2.0000 	   42.0000 	    8.6641 
    0.7095 	   17.0120 	    2.0000 	   42.0000 	    8.6971 
    0.3586 	   17.0740 	    2.0000 	   42.0000 	    8.7281 
    0.6180 	   17.1460 	    2.0000 	   42.0000 	    8.7641 
    0.5417 	   17.2100 	    2.0000 	   42.0000 	    8.7961 
    0.5722 	   17.2680 	    2.0000 	   42.0000 	    8.8251 
    0.6332 	   17.3300 	    2.0000 	   42.0000 	    8.8561 
    0.7095 	   17.3960 	    2.0000 	   42.0000 	    8.8891 
    0.5722 	   17.4560 	    2.0000 	   42.0000 	    8.9191 
    0.7095 	   17.5180 	    2.0000 	   42.0000 	    8.9501 
    0.6638 	   17.5780 	    2.0000 	   42.0000 	    8.9801 
    0.6027 	   17.6480 	    2.0000 	   42.0000 	    9.0151 
    0.6790 	   17.7100 	    2.0000 	   42.0000 	    9.0462 
    0.5875 	   17.7700 	    2.0000 	   42.0000 	    9.0762 
    0.7553 	   17.8300 	    2.0000 	   42.0000 	    9.1062 
    0.5722 	   17.9020 	    2.0000 	   42.0000 	    9.1422 
    0.6332 	   17.9720 	    2.0000 	   42.0000 	    9.1772 
    0.8011 	   18.0340 	    2.0000 	   42.0000 	    9.2082 
    0.5875 	   18.0980 	    2.0000 	   42.0000 	    9.2402 
    0.6790 	   18.1680 	    2.0000 	   42.0000 	    9.2752 
    0.7095 	   18.2300 	    2.0000 	   42.0000 	    9.3062 
    0.6638 	   18.2920 	    2.0000 	   42.0000 	    9.3372 
    0.7706 	   18.3560 	    2.0000 	   42.0000 	    9.3692 
    0.6332 	   18.4260 	    2.0000 	   42.0000 	    9.4042 
    0.6027 	   18.4860 	    2.0000 	   42.0000 	    9.4342 
    0.3891 	   18.5500 	    2.0000 	   42.0000 	    9.4662 
    0.6790 	   18.6080 	    2.0000 	   42.0000 	    9.4952 
    0.6485 	   18.6820 	    2.0000 	   42.0000 	    9.5322 
    0.6790 	   18.7520 	    2.0000 	   42.0000 	    9.5672 
    0.6943 	   18.8140 	    2.0000 	   42.0000 	    9.5982 
    0.6332 	   18.8820 	    2.0000 	   42.0000 	    9.6322 
    0.7095 	   18.9460 	    2.0000 	   42.0000 	    9.6642 
    0.5417 	   19.0100 	    2.0000 	   42.0000 	    9.6962 
    0.6027 	   19.0740 	    2.0000 	   42.0000 	    9.7282 
    0.6332 	   19.1480 	    2.0000 	   42.0000 	    9.7652 
    0.7706 	   19.2080 	    2.0000 	   42.0000 	    9.7952 
    0.6943 	   19.2700 	    2.0000 	   42.0000 	    9.8262 
    0.6638 	   19.3300 	    2.0000 	   42.0000 	    9.8562 
    0.7095 	   19.4020 	    2.0000 	   42.0000 	    9.8922 
    0.9079 	   19.4640 	    2.0000 	   42.0000 	    9.9232 
    0.8011 	   19.5260 	    2.0000 	   42.0000 	    9.9542 
    0.7401 	   19.5900 	    2.0000 	   42.0000 	    9.9862 
    0.7706 	   19.6600 	    2.0000 	   42.0000 	   10.0212 
    0.7553 	   19.7240 	    2.0000 	   42.0000 	   10.0532 
    0.6638 	   19.7860 	    2.0000 	   42.0000 	   10.0842 
    0.6332 	   19.8480 	    2.0000 	   42.0000 	   10.1152 
    0.7248 	   19.9120 	    2.0000 	   42.0000 	   10.1472 
    0.6027 	   19.9760 	    2.0000 	   42.0000 	   10.1792 
    0.5570 	   20.0340 	    2.0000 	   42.0000 	   10.2082 
    0.6790 	   20.0960 	    2.0000 	   42.0000 	   10.2392 
    0.7095 	   20.1620 	    2.0000 	   42.0000 	   10.2722 
    0.8011 	   20.2240 	    2.0000 	   42.0000 	   10.3032 
    0.6943 	   20.2880 	    2.0000 	   42.0000 	   10.3352 
    0.6790 	   20.3500 	    2.0000 	   42.0000 	   10.3662 
    0.7095 	   20.4160 	    2.0000 	   42.0000 	   10.3992 
    0.6943 	   20.4800 	    2.0000 	   42.0000 	   10.4312 
    0.6332 	   20.5420 	    2.0000 	   42.0000 	   10.4622 
    0.7401 	   20.6020 	    2.0000 	   42.0000 	   10.4922 
    0.6332 	   20.6740 	    2.0000 	   42.0000 	   10.5282 
    0.5112 	   20.7380 	    2.0000 	   42.0000 	   10.5602 
    0.7095 	   20.7960 	    2.0000 	   42.0000 	   10.5892 
    0.6790 	   20.8580 	    2.0000 	   42.0000 	   10.6202 
    0.7401 	   20.9340 	    2.0000 	   42.0000 	   10.6582 
    0.6332 	   20.9940 	    2.0000 	   42.0000 	   10.6882 
    0.8316 	   21.0580 	    2.0000 	   42.0000 	   10.7202 
    0.6943 	   21.1200 	    2.0000 	   42.0000 	   10.7512 
    0.5570 	   21.1880 	    2.0000 	   42.0000 	   10.7852 
    0.6943 	   21.2480 	    2.0000 	   42.0000 	   10.8153 
    0.6638 	   21.3140 	    2.0000 	   42.0000 	   10.8483 
    0.6790 	   21.3800 	    2.0000 	   42.0000 	   10.8813 
    0.9232 	   21.4460 	    2.0000 	   42.0000 	   10.9143 
    0.6790 	   21.5120 	    2.0000 	   42.0000 	   10.9473 
    0.5722 	   21.5760 	    2.0000 	   42.0000 	   10.9793 
    0.8011 	   21.6460 	    2.0000 	   42.0000 	   11.0143 
    0.4807 	   21.7080 	    2.0000 	   42.0000 	   11.0453 
    0.6790 	   21.7700 	    2.0000 	   42.0000 	   11.0763 
    0.7858 	   21.8300 	    2.0000 	   42.0000 	   11.1063 
    0.6638 	   21.8960 	    2.0000 	   42.0000 	   11.1393 
    0.7248 	   21.9580 	    2.0000 	   42.0000 	   11.1703 
    0.6485 	   22.0220 	    2.0000 	   42.0000 	   11.2023 
    0.8164 	   22.0840 	    2.0000 	   42.0000 	   11.2333 
    0.6332 	   22.1560 	    2.0000 	   42.0000 	   11.2693 
    0.7095 	   22.2180 	    2.0000 	   42.0000 	   11.3003 
    0.6790 	   22.2800 	    2.0000 	   42.0000 	   11.3313 
    0.7401 	   22.3440 	    2.0000 	   42.0000 	   11.3633 
    0.6485 	   22.4040 	    2.0000 	   42.0000 	   11.3933 
    0.6638 	   22.4660 	    2.0000 	   42.0000 	   11.4243 
    0.7095 	   22.5300 	    2.0000 	   42.0000 	   11.4563 
    0.4044 	   22.5940 	    2.0000 	   42.0000 	   11.4883 
    0.8774 	   22.6640 	    2.0000 	   42.0000 	   11.5233 
    0.7401 	   22.7240 	    2.0000 	   42.0000 	   11.5533 
    0.8316 	   22.7820 	    2.0000 	   42.0000 	   11.5823 
    0.5570 	   22.8500 	    2.0000 	   42.0000 	   11.6163 
    0.8164 	   22.9160 	    2.0000 	   42.0000 	   11.6493 
    0.6485 	   22.9780 	    2.0000 	   42.0000 	   11.6803 
    0.7858 	   23.0440 	    2.0000 	   42.0000 	   11.7133 
    0.8774 	   23.1080 	    2.0000 	   42.0000 	   11.7453 
    0.8164 	   23.1780 	    2.0000 	   42.0000 	   11.7803 
    0.7401 	   23.2420 	    2.0000 	   42.0000 	   11.8123 
    0.6485 	   23.3040 	    2.0000 	   42.0000 	   11.8433 
    0.8621 	   23.3680 	    2.0000 	   42.0000 	   11.8753 
    0.7095 	   23.4340 	    2.0000 	   42.0000 	   11.9083 
    0.6790 	   23.5000 	    2.0000 	   42.0000 	   11.9413 
    0.7553 	   23.5620 	    2.0000 	   42.0000 	   11.9723 
    0.8011 	   23.6280 	    2.0000 	   42.0000 	   12.0053 
    0.9232 	   23.6920 	    2.0000 	   42.0000 	   12.0373 
    0.9079 	   23.7500 	    2.0000 	   42.0000 	   12.0663 
    0.8011 	   23.8160 	    2.0000 	   42.0000 	   12.0993 
    0.6638 	   23.8820 	    2.0000 	   42.0000 	   12.1323 
    0.8469 	   23.9480 	    2.0000 	   42.0000 	   12.1653 
    0.7401 	   24.0080 	    2.0000 	   42.0000 	   12.1953 
    0.5722 	   24.0660 	    2.0000 	   42.0000 	   12.2243 
    0.7706 	   24.1380 	    2.0000 	   42.0000 	   12.2593 
    0.8621 	   24.2000 	    2.0000 	   42.0000 	   12.2913 
    0.9384 	   24.2620 	    2.0000 	   42.0000 	   12.3223 
    0.6790 	   24.3260 	    2.0000 	   42.0000 	   12.3543 
    0.6180 	   24.3880 	    2.0000 	   42.0000 	   12.3853 
    0.8621 	   24.4480 	    2.0000 	   42.0000 	   12.4153 
    0.6027 	   24.5140 	    2.0000 	   42.0000 	   12.4483 
    0.7553 	   24.5780 	    2.0000 	   42.0000 	   12.4803 
    0.7248 	   24.6500 	    2.0000 	   42.0000 	   12.5163 
    0.8621 	   24.7120 	    2.0000 	   42.0000 	   12.5474 
    0.6638 	   24.7760 	    2.0000 	   42.0000 	   12.5794 
    0.7858 	   24.8420 	    2.0000 	   42.0000 	   12.6124 
    0.8316 	   24.9020 	    2.0000 	   42.0000 	   12.6424 
    0.6790 	   24.9700 	    2.0000 	   42.0000 	   12.6764 
    0.7706 	   25.0280 	    2.0000 	   42.0000 	   12.7054 
    0.8621 	   25.0900 	    2.0000 	   42.0000 	   12.7364 
    0.8469 	   25.1580 	    2.0000 	   42.0000 	   12.7704 
    0.7858 	   25.2200 	    2.0000 	   42.0000 	   12.8014 
    0.6943 	   25.2840 	    2.0000 	   42.0000 	   12.8334 
    0.9689 	   25.3440 	    2.0000 	   42.0000 	   12.8634 
    0.7706 	   25.4080 	    2.0000 	   42.0000 	   12.8954 
    0.8164 	   25.4720 	    2.0000 	   42.0000 	   12.9274 
    0.7858 	   25.5380 	    2.0000 	   42.0000 	   12.9604 
    0.6027 	   25.6020 	    2.0000 	   42.0000 	   12.9924 
    0.7095 	   25.6740 	    2.0000 	   42.0000 	   13.0284 
    0.8011 	   25.7380 	    2.0000 	   42.0000 	   13.0604 
    0.7858 	   25.8080 	    2.0000 	   42.0000 	   13.0954 
    0.7858 	   25.8740 	    2.0000 	   42.0000 	   13.1284 
    0.7553 	   25.9400 	    2.0000 	   42.0000 	   13.1614 
    0.6638 	   26.0080 	    2.0000 	   42.0000 	   13.1954 
    0.8469 	   26.0740 	    2.0000 	   42.0000 	   13.2284 
    0.8316 	   26.1440 	    2.0000 	   42.0000 	   13.2634 
    0.8927 	   26.2080 	    2.0000 	   42.0000 	   13.2954 
    0.8927 	   26.2740 	    2.0000 	   42.0000 	   13.3284 
    0.7401 	   26.3420 	    2.0000 	   42.0000 	   13.3624 
    0.7248 	   26.4040 	    2.0000 	   42.0000 	   13.3934 
    0.9079 	   26.4680 	    2.0000 	   42.0000 	   13.4254 
    0.6943 	   26.5340 	    2.0000 	   42.0000 	   13.4584 
    0.6790 	   26.6000 	    2.0000 	   42.0000 	   13.4914 
    0.7401 	   26.6680 	    2.0000 	   42.0000 	   13.5254 
    0.8621 	   26.7340 	    2.0000 	   42.0000 	   13.5584 
    0.7858 	   26.8000 	    2.0000 	   42.0000 	   13.5914 
    0.9232 	   26.8660 	    2.0000 	   42.0000 	   13.6244 
    0.7706 	   26.9280 	    2.0000 	   42.0000 	   13.6554 
    0.7401 	   26.9840 	    2.0000 	   42.0000 	   13.6834 
    0.9384 	   27.0500 	    2.0000 	   42.0000 	   13.7164 
    0.9232 	   27.1100 	    2.0000 	   42.0000 	   13.7464 
    0.8011 	   27.1800 	    2.0000 	   42.0000 	   13.7814 
    0.7858 	   27.2400 	    2.0000 	   42.0000 	   13.8114 
    0.8774 	   27.3060 	    2.0000 	   42.0000 	   13.8444 
    0.7401 	   27.3680 	    2.0000 	   42.0000 	   13.8754 
    0.7706 	   27.4280 	    2.0000 	   42.0000 	   13.9054 
    0.8316 	   27.4940 	    2.0000 	   42.0000 	   13.9384 
    0.8164 	   27.5540 	    2.0000 	   42.0000 	   13.9684 
    0.8469 	   27.6200 	    2.0000 	   42.0000 	   14.0014 
    0.8469 	   27.6900 	    2.0000 	   42.0000 	   14.0364 
    0.8774 	   27.7560 	    2.0000 	   42.0000 	   14.0694 
    0.7858 	   27.8220 	    2.0000 	   42.0000 	   14.1024 
    0.9842 	   27.8840 	    2.0000 	   42.0000 	   14.1334 
    0.9232 	   27.9460 	    2.0000 	   42.0000 	   14.1644 
    0.8774 	   28.0100 	    2.0000 	   42.0000 	   14.1964 
    0.8316 	   28.0760 	    2.0000 	   42.0000 	   14.2294 
    0.8011 	   28.1480 	    2.0000 	   42.0000 	   14.2654 
    0.8927 	   28.2140 	    2.0000 	   42.0000 	   14.2985 
    0.8927 	   28.2780 	    2.0000 	   42.0000 	   14.3305 
    0.9842 	   28.3440 	    2.0000 	   42.0000 	   14.3635 
    0.6638 	   28.4080 	    2.0000 	   42.0000 	   14.3955 
    0.9232 	   28.4740 	    2.0000 	   42.0000 	   14.4285 
    0.7401 	   28.5440 	    2.0000 	   42.0000 	   14.4635 
    0.8011 	   28.6120 	    2.0000 	   42.0000 	   14.4975 
    0.7706 	   28.6820 	    2.0000 	   42.0000 	   14.5325 
    0.9232 	   28.7440 	    2.0000 	   42.0000 	   14.5635 
    0.5570 	   28.8060 	    2.0000 	   42.0000 	   14.5945 
    0.8164 	   28.8720 	    2.0000 	   42.0000 	   14.6275 
    0.9842 	   28.9380 	    2.0000 	   42.0000 	   14.6605 
    0.7401 	   28.9980 	    2.0000 	   42.0000 	   14.6905 
    0.9232 	   29.0600 	    2.0000 	   42.0000 	   14.7215 
    0.7858 	   29.1240 	    2.0000 	   42.0000 	   14.7535 
    0.7248 	   29.1940 	    2.0000 	   42.0000 	   14.7885 
    0.7858 	   29.2580 	    2.0000 	   42.0000 	   14.8205 
    0.6332 	   29.3240 	    2.0000 	   42.0000 	   14.8535 
    0.8469 	   29.3880 	    2.0000 	   42.0000 	   14.8855 
    0.8927 	   29.4520 	    2.0000 	   42.0000 	   14.9175 
    0.8469 	   29.5180 	    2.0000 	   42.0000 	   14.9505 
    0.9079 	   29.5840 	    2.0000 	   42.0000 	   14.9835 
    0.9079 	   29.6520 	    2.0000 	   42.0000 	   15.0175 
    0.8469 	   29.7200 	    2.0000 	   42.0000 	   15.0515 
    0.7706 	   29.7860 	    2.0000 	   42.0000 	   15.0845 
    0.9079 	   29.8540 	    2.0000 	   42.0000 	   15.1185 
    0.9384 	   29.9220 	    2.0000 	   42.0000 	   15.1525 
    0.7858 	   29.9900 	    2.0000 	   42.0000 	   15.1865 
    0.8164 	   30.0520 	    2.0000 	   42.0000 	   15.2175 
    0.8316 	   30.1200 	    2.0000 	   42.0000 	   15.2515 
    0.8469 	   30.1940 	    2.0000 	   42.0000 	   15.2885 
    1.0147 	   30.2580 	    2.0000 	   42.0000 	   15.3205 
    0.8774 	   30.3240 	    2.0000 	   42.0000 	   15.3535 
    0.8011 	   30.3920 	    2.0000 	   42.0000 	   15.3875 
    0.8469 	   30.4520 	    2.0000 	   42.0000 	   15.4175 
    1.1368 	   30.5200 	    2.0000 	   42.0000 	   15.4515 
    0.8316 	   30.5840 	    2.0000 	   42.0000 	   15.4835 
    0.9384 	   30.7200 	    2.0000 	   42.0000 	   15.5515 
    0.9232 	   30.7820 	    2.0000 	   42.0000 	   15.5825 
    0.8469 	   30.8440 	    2.0000 	   42.0000 	   15.6135 
    0.9842 	   30.9080 	    2.0000 	   42.0000 	   15.6455 
    0.8469 	   30.9740 	    2.0000 	   42.0000 	   15.6785 
    0.8621 	   31.0440 	    2.0000 	   42.0000 	   15.7135 
    0.6943 	   31.1080 	    2.0000 	   42.0000 	   15.7455 
    0.9384 	   31.1840 	    2.0000 	   42.0000 	   15.7835 
    0.8469 	   31.2480 	    2.0000 	   42.0000 	   15.8155 
    0.6638 	   31.3120 	    2.0000 	   42.0000 	   15.8475 
    0.8469 	   31.3780 	    2.0000 	   42.0000 	   15.8805 
    0.9537 	   31.4460 	    2.0000 	   42.0000 	   15.9145 
    0.9232 	   31.5120 	    2.0000 	   42.0000 	   15.9475 
    0.7706 	   31.5760 	    2.0000 	   42.0000 	   15.9795 
    0.7858 	   31.6540 	    2.0000 	   42.0000 	   16.0185 
    0.9079 	   31.7200 	    2.0000 	   42.0000 	   16.0516 
    0.8621 	   31.7880 	    2.0000 	   42.0000 	   16.0856 
    0.8927 	   31.8520 	    2.0000 	   42.0000 	   16.1176 
    1.0452 	   31.9180 	    2.0000 	   42.0000 	   16.1506 
    0.8164 	   31.9840 	    2.0000 	   42.0000 	   16.1836 
    0.8621 	   32.0500 	    2.0000 	   42.0000 	   16.2166 
    0.8011 	   32.1160 	    2.0000 	   42.0000 	   16.2496 
    0.9995 	   32.1880 	    2.0000 	   42.0000 	   16.2856 
    0.7706 	   32.2580 	    2.0000 	   42.0000 	   16.3206 
    0.8164 	   32.3220 	    2.0000 	   42.0000 	   16.3526 
    0.8316 	   32.3900 	    2.0000 	   42.0000 	   16.3866 
    0.7858 	   32.4540 	    2.0000 	   42.0000 	   16.4186 
    0.8469 	   32.5160 	    2.0000 	   42.0000 	   16.4496 
    0.8927 	   32.5840 	    2.0000 	   42.0000 	   16.4836 
    0.8774 	   32.6540 	    2.0000 	   42.0000 	   16.5186 
    0.8774 	   32.7180 	    2.0000 	   42.0000 	   16.5506 
    1.1215 	   32.7800 	    2.0000 	   42.0000 	   16.5816 
    0.8774 	   32.8440 	    2.0000 	   42.0000 	   16.6136 
    0.9384 	   32.9100 	    2.0000 	   42.0000 	   16.6466 
    0.9079 	   32.9780 	    2.0000 	   42.0000 	   16.6806 
    0.8774 	   33.0460 	    2.0000 	   42.0000 	   16.7146 
    0.9384 	   33.1120 	    2.0000 	   42.0000 	   16.7476 
    0.9842 	   33.1860 	    2.0000 	   42.0000 	   16.7846 
    0.8927 	   33.2540 	    2.0000 	   42.0000 	   16.8186 
    1.0605 	   33.3220 	    2.0000 	   42.0000 	   16.8526 
    0.8774 	   33.3880 	    2.0000 	   42.0000 	   16.8856 
    0.8469 	   33.4540 	    2.0000 	   42.0000 	   16.9186 
    0.9537 	   33.5220 	    2.0000 	   42.0000 	   16.9526 
    0.9689 	   33.5880 	    2.0000 	   42.0000 	   16.9856 
    1.1673 	   33.6520 	    2.0000 	   42.0000 	   17.0176 
    0.8316 	   33.7140 	    2.0000 	   42.0000 	   17.0486 
    0.9842 	   33.7820 	    2.0000 	   42.0000 	   17.0826 
    0.9079 	   33.8480 	    2.0000 	   42.0000 	   17.1156 
    0.8774 	   33.9120 	    2.0000 	   42.0000 	   17.1476 
    0.9842 	   33.9760 	    2.0000 	   42.0000 	   17.1796 
    0.8011 	   34.0420 	    2.0000 	   42.0000 	   17.2126 
    0.9079 	   34.1140 	    2.0000 	   42.0000 	   17.2476 
    0.8316 	   34.1860 	    2.0000 	   42.0000 	   17.2846 
    0.9232 	   34.2520 	    2.0000 	   42.0000 	   17.3176 
    0.7401 	   34.3160 	    2.0000 	   42.0000 	   17.3496 
    0.9995 	   34.3800 	    2.0000 	   42.0000 	   17.3816 
    0.9995 	   34.4460 	    2.0000 	   42.0000 	   17.4146 
    0.9079 	   34.5140 	    2.0000 	   42.0000 	   17.4486 
    0.9995 	   34.5740 	    2.0000 	   42.0000 	   17.4786 
    0.8469 	   34.6420 	    2.0000 	   42.0000 	   17.5126 
    0.9232 	   34.7080 	    2.0000 	   42.0000 	   17.5456 
    0.9232 	   34.7760 	    2.0000 	   42.0000 	   17.5796 
    0.8927 	   34.8440 	    2.0000 	   42.0000 	   17.6136 
    0.8774 	   34.9140 	    2.0000 	   42.0000 	   17.6486 
    0.9537 	   34.9780 	    2.0000 	   42.0000 	   17.6806 
    0.8774 	   35.0440 	    2.0000 	   42.0000 	   17.7136 
    0.6638 	   35.1060 	    2.0000 	   42.0000 	   17.7446 
    0.9689 	   35.1800 	    2.0000 	   42.0000 	   17.7807 
    0.8927 	   35.2420 	    2.0000 	   42.0000 	   17.8117 
    0.8774 	   35.3080 	    2.0000 	   42.0000 	   17.8447 
    0.9232 	   35.3720 	    2.0000 	   42.0000 	   17.8767 
    0.9537 	   35.4360 	    2.0000 	   42.0000 	   17.9087 
    0.9537 	   35.5040 	    2.0000 	   42.0000 	   17.9427 
    1.0910 	   35.5700 	    2.0000 	   42.0000 	   17.9757 
    0.9537 	   35.6340 	    2.0000 	   42.0000 	   18.0077 
    1.0300 	   35.7040 	    2.0000 	   42.0000 	   18.0427 
    0.9232 	   35.7720 	    2.0000 	   42.0000 	   18.0767 
    0.7706 	   35.8380 	    2.0000 	   42.0000 	   18.1097 
    0.8774 	   35.9000 	    2.0000 	   42.0000 	   18.1407 
    0.9384 	   35.9660 	    2.0000 	   42.0000 	   18.1737 
    1.0300 	   36.0320 	    2.0000 	   42.0000 	   18.2067 
    0.8774 	   36.0960 	    2.0000 	   42.0000 	   18.2387 
    0.9689 	   36.1680 	    2.0000 	   42.0000 	   18.2747 
    0.9537 	   36.2320 	    2.0000 	   42.0000 	   18.3067 
    0.9537 	   36.2980 	    2.0000 	   42.0000 	   18.3397 
    0.9537 	   36.3660 	    2.0000 	   42.0000 	   18.3737 
    0.9537 	   36.4320 	    2.0000 	   42.0000 	   18.4067 
    1.1063 	   36.5000 	    2.0000 	   42.0000 	   18.4407 
    0.9232 	   36.5660 	    2.0000 	   42.0000 	   18.4737 
    0.9079 	   36.6320 	    2.0000 	   42.0000 	   18.5067 
    0.9842 	   36.6980 	    2.0000 	   42.0000 	   18.5397 
    0.9384 	   36.7620 	    2.0000 	   42.0000 	   18.5707 
    0.8927 	   36.8280 	    2.0000 	   42.0000 	   18.6047 
    1.0452 	   36.8940 	    2.0000 	   42.0000 	   18.6377 
    1.1673 	   36.9580 	    2.0000 	   42.0000 	   18.6697 
    0.8621 	   37.0240 	    2.0000 	   42.0000 	   18.7027 
    0.6943 	   37.0940 	    2.0000 	   42.0000 	   18.7377 
    0.6790 	   37.1660 	    2.0000 	   42.0000 	   18.7727 
    0.6332 	   37.2280 	    2.0000 	   42.0000 	   18.8047 
    1.0910 	   37.3000 	    2.0000 	   42.0000 	   18.8407 
    0.8774 	   37.3640 	    2.0000 	   42.0000 	   18.8727 
    0.8316 	   37.4300 	    2.0000 	   42.0000 	   18.9057 
    0.9537 	   37.4980 	    2.0000 	   42.0000 	   18.9397 
    0.9384 	   37.5640 	    2.0000 	   42.0000 	   18.9727 
    0.9995 	   37.6300 	    2.0000 	   42.0000 	   19.0057 
    1.1368 	   37.6940 	    2.0000 	   42.0000 	   19.0377 
    1.0910 	   37.7580 	    2.0000 	   42.0000 	   19.0697 
    0.9689 	   37.8240 	    2.0000 	   42.0000 	   19.1027 
    1.0758 	   37.8920 	    2.0000 	   42.0000 	   19.1367 
    1.1215 	   37.9600 	    2.0000 	   42.0000 	   19.1707 
    0.9079 	   38.0260 	    2.0000 	   42.0000 	   19.2037 
    0.9842 	   38.0940 	    2.0000 	   42.0000 	   19.2377 
    0.8774 	   38.1680 	    2.0000 	   42.0000 	   19.2747 
    0.9537 	   38.2360 	    2.0000 	   42.0000 	   19.3087 
    1.0147 	   38.3000 	    2.0000 	   42.0000 	   19.3407 
    0.9842 	   38.3640 	    2.0000 	   42.0000 	   19.3727 
    1.0147 	   38.4280 	    2.0000 	   42.0000 	   19.4047 
    1.1368 	   38.4960 	    2.0000 	   42.0000 	   19.4387 
    0.9689 	   38.5620 	    2.0000 	   42.0000 	   19.4717 
    1.1521 	   38.6260 	    2.0000 	   42.0000 	   19.5037 
    0.9995 	   38.6900 	    2.0000 	   42.0000 	   19.5358 
    1.0758 	   38.7560 	    2.0000 	   42.0000 	   19.5688 
    0.9995 	   38.8200 	    2.0000 	   42.0000 	   19.6008 
    0.9995 	   38.8880 	    2.0000 	   42.0000 	   19.6348 
    0.9232 	   38.9540 	    2.0000 	   42.0000 	   19.6678 
    1.0758 	   39.0220 	    2.0000 	   42.0000 	   19.7018 
    0.8164 	   39.0860 	    2.0000 	   42.0000 	   19.7338 
    0.9079 	   39.1540 	    2.0000 	   42.0000 	   19.7678 
    0.9384 	   39.2200 	    2.0000 	   42.0000 	   19.8008 
    1.1368 	   39.2840 	    2.0000 	   42.0000 	   19.8328 
    0.9842 	   39.3500 	    2.0000 	   42.0000 	   19.8658 
    0.9079 	   39.4160 	    2.0000 	   42.0000 	   19.8988 
    1.0300 	   39.4840 	    2.0000 	   42.0000 	   19.9328 
    0.9995 	   39.5500 	    2.0000 	   42.0000 	   19.9658 
    1.0452 	   39.6160 	    2.0000 	   42.0000 	   19.9988 
    0.9689 	   39.6820 	    2.0000 	   42.0000 	   20.0318 
    1.0300 	   39.7480 	    2.0000 	   42.0000 	   20.0648 
    1.0452 	   39.8160 	    2.0000 	   42.0000 	   20.0988 
    1.0758 	   39.8840 	    2.0000 	   42.0000 	   20.1328 
    1.1063 	   39.9500 	    2.0000 	   42.0000 	   20.1658 
    0.8774 	   40.0160 	    2.0000 	   42.0000 	   20.1988 
    1.1063 	   40.0800 	    2.0000 	   42.0000 	   20.2308 
    1.2131 	   40.1520 	    2.0000 	   42.0000 	   20.2668 
    1.0452 	   40.2180 	    2.0000 	   42.0000 	   20.2998 
    1.0147 	   40.2860 	    2.0000 	   42.0000 	   20.3338 
    0.9537 	   40.3520 	    2.0000 	   42.0000 	   20.3668 
    0.9689 	   40.4240 	    2.0000 	   42.0000 	   20.4028 
    0.9995 	   40.4840 	    2.0000 	   42.0000 	   20.4328 
    0.8469 	   40.5540 	    2.0000 	   42.0000 	   20.4678 
    0.9995 	   40.6180 	    2.0000 	   42.0000 	   20.4998 
    1.1063 	   40.6840 	    2.0000 	   42.0000 	   20.5328 
    1.0147 	   40.7540 	    2.0000 	   42.0000 	   20.5678 
    0.9995 	   40.8200 	    2.0000 	   42.0000 	   20.6008 
    0.9842 	   40.8860 	    2.0000 	   42.0000 	   20.6338 
    0.9995 	   40.9540 	    2.0000 	   42.0000 	   20.6678 
    1.1368 	   41.0220 	    2.0000 	   42.0000 	   20.7018 
    1.1063 	   41.0900 	    2.0000 	   42.0000 	   20.7358 
    1.0147 	   41.1620 	    2.0000 	   42.0000 	   20.7718 
    1.1215 	   41.2340 	    2.0000 	   42.0000 	   20.8078 
    1.0300 	   41.2960 	    2.0000 	   42.0000 	   20.8388 
    1.0147 	   41.3620 	    2.0000 	   42.0000 	   20.8718 
    1.1978 	   41.4300 	    2.0000 	   42.0000 	   20.9058 
    1.1063 	   41.5000 	    2.0000 	   42.0000 	   20.9408 
    1.1215 	   41.5660 	    2.0000 	   42.0000 	   20.9738 
    1.1368 	   41.6320 	    2.0000 	   42.0000 	   21.0068 
    0.9995 	   41.6980 	    2.0000 	   42.0000 	   21.0398 
    0.6943 	   41.7640 	    2.0000 	   42.0000 	   21.0728 
    0.8469 	   41.8320 	    2.0000 	   42.0000 	   21.1068 
    0.7553 	   41.8980 	    2.0000 	   42.0000 	   21.1398 
    1.3352 	   41.9640 	    2.0000 	   42.0000 	   21.1728 
    0.9689 	   42.0320 	    2.0000 	   42.0000 	   21.2068 
    0.7858 	   42.1040 	    2.0000 	   42.0000 	   21.2428 
    1.1673 	   42.1760 	    2.0000 	   42.0000 	   21.2789 
    1.1673 	   42.2440 	    2.0000 	   42.0000 	   21.3129 
    1.1521 	   42.3080 	    2.0000 	   42.0000 	   21.3449 
    1.0300 	   42.3740 	    2.0000 	   42.0000 	   21.3779 
    1.1521 	   42.4400 	    2.0000 	   42.0000 	   21.4109 
    1.0758 	   42.5080 	    2.0000 	   42.0000 	   21.4449 
    0.9995 	   42.5740 	    2.0000 	   42.0000 	   21.4779 
    1.0452 	   42.6420 	    2.0000 	   42.0000 	   21.5119 
    1.1521 	   42.7060 	    2.0000 	   42.0000 	   21.5439 
    1.1521 	   42.7700 	    2.0000 	   42.0000 	   21.5759 
    1.1063 	   42.8360 	    2.0000 	   42.0000 	   21.6089 
    1.1521 	   42.9100 	    2.0000 	   42.0000 	   21.6459 
    1.1063 	   42.9740 	    2.0000 	   42.0000 	   21.6779 
    1.0605 	   43.0380 	    2.0000 	   42.0000 	   21.7099 
    1.2894 	   43.1020 	    2.0000 	   42.0000 	   21.7419 
    1.0147 	   43.1740 	    2.0000 	   42.0000 	   21.7779 
    0.9842 	   43.2360 	    2.0000 	   42.0000 	   21.8089 
    1.0758 	   43.2940 	    2.0000 	   42.0000 	   21.8379 
    1.1368 	   43.3580 	    2.0000 	   42.0000 	   21.8699 
    1.1673 	   43.4200 	    2.0000 	   42.0000 	   21.9009 
    1.0910 	   43.4880 	    2.0000 	   42.0000 	   21.9349 
    1.1978 	   43.5580 	    2.0000 	   42.0000 	   21.9699 
    1.0910 	   43.6260 	    2.0000 	   42.0000 	   22.0039 
    1.0910 	   43.6920 	    2.0000 	   42.0000 	   22.0369 
    1.0147 	   43.7580 	    2.0000 	   42.0000 	   22.0699 
    1.0147 	   43.8300 	    2.0000 	   42.0000 	   22.1059 
    1.1368 	   43.9000 	    2.0000 	   42.0000 	   22.1409 
    1.1063 	   43.9740 	    2.0000 	   42.0000 	   22.1779 
    1.1368 	   44.0340 	    2.0000 	   42.0000 	   22.2079 
    1.1673 	   44.0960 	    2.0000 	   42.0000 	   22.2389 
    1.0452 	   44.1660 	    2.0000 	   42.0000 	   22.2739 
    1.1521 	   44.2280 	    2.0000 	   42.0000 	   22.3049 
    1.0147 	   44.2960 	    2.0000 	   42.0000 	   22.3389 
    0.9537 	   44.3600 	    2.0000 	   42.0000 	   22.3709 
    1.0758 	   44.4260 	    2.0000 	   42.0000 	   22.4039 
    1.1673 	   44.4900 	    2.0000 	   42.0000 	   22.4359 
    1.1215 	   44.5520 	    2.0000 	   42.0000 	   22.4669 
    1.1215 	   44.6220 	    2.0000 	   42.0000 	   22.5019 
    1.1063 	   44.6880 	    2.0000 	   42.0000 	   22.5349 
    1.1826 	   44.7500 	    2.0000 	   42.0000 	   22.5659 
    1.1673 	   44.8180 	    2.0000 	   42.0000 	   22.5999 
    1.1521 	   44.8860 	    2.0000 	   42.0000 	   22.6339 
    1.0605 	   44.9540 	    2.0000 	   42.0000 	   22.6679 
    1.1063 	   45.0200 	    2.0000 	   42.0000 	   22.7009 
    1.0910 	   45.0880 	    2.0000 	   42.0000 	   22.7349 
    1.1826 	   45.1620 	    2.0000 	   42.0000 	   22.7719 
    0.9842 	   45.2260 	    2.0000 	   42.0000 	   22.8039 
    1.0147 	   45.2920 	    2.0000 	   42.0000 	   22.8369 
    1.0452 	   45.3620 	    2.0000 	   42.0000 	   22.8719 
    1.2436 	   45.4280 	    2.0000 	   42.0000 	   22.9049 
    1.2589 	   45.4920 	    2.0000 	   42.0000 	   22.9369 
    1.0605 	   45.5600 	    2.0000 	   42.0000 	   22.9709 
    1.1215 	   45.6260 	    2.0000 	   42.0000 	   23.0039 
    1.2284 	   45.6920 	    2.0000 	   42.0000 	   23.0370 
    1.2284 	   45.7600 	    2.0000 	   42.0000 	   23.0710 
    1.2589 	   45.8240 	    2.0000 	   42.0000 	   23.1030 
    1.0605 	   45.8900 	    2.0000 	   42.0000 	   23.1360 
    1.1215 	   45.9580 	    2.0000 	   42.0000 	   23.1700 
    1.1063 	   46.0220 	    2.0000 	   42.0000 	   23.2020 
    1.0758 	   46.0880 	    2.0000 	   42.0000 	   23.2350 
    1.1063 	   46.1640 	    2.0000 	   42.0000 	   23.2730 
    1.2131 	   46.2320 	    2.0000 	   42.0000 	   23.3070 
    1.2131 	   46.3000 	    2.0000 	   42.0000 	   23.3410 
    1.1978 	   46.3620 	    2.0000 	   42.0000 	   23.3720 
    1.1521 	   46.4300 	    2.0000 	   42.0000 	   23.4060 
    0.9842 	   46.5000 	    2.0000 	   42.0000 	   23.4410 
    1.1521 	   46.5660 	    2.0000 	   42.0000 	   23.4740 
    1.1826 	   46.6320 	    2.0000 	   42.0000 	   23.5070 
    1.1215 	   46.7000 	    2.0000 	   42.0000 	   23.5410 
    1.4115 	   46.7680 	    2.0000 	   42.0000 	   23.5750 
    1.2284 	   46.8380 	    2.0000 	   42.0000 	   23.6100 
    1.3046 	   46.9080 	    2.0000 	   42.0000 	   23.6450 
    1.2131 	   46.9740 	    2.0000 	   42.0000 	   23.6780 
    1.1063 	   47.0400 	    2.0000 	   42.0000 	   23.7110 
    1.0300 	   47.1040 	    2.0000 	   42.0000 	   23.7430 
    1.0910 	   47.1800 	    2.0000 	   42.0000 	   23.7810 
    1.1368 	   47.2480 	    2.0000 	   42.0000 	   23.8150 
    1.3199 	   47.3200 	    2.0000 	   42.0000 	   23.8510 
    1.2894 	   47.3880 	    2.0000 	   42.0000 	   23.8850 
    1.2741 	   47.4540 	    2.0000 	   42.0000 	   23.9180 
    1.2131 	   47.5220 	    2.0000 	   42.0000 	   23.9520 
    1.2436 	   47.5860 	    2.0000 	   42.0000 	   23.9840 
    1.2284 	   47.6540 	    2.0000 	   42.0000 	   24.0180 
    1.2741 	   47.7240 	    2.0000 	   42.0000 	   24.0530 
    1.2284 	   47.7920 	    2.0000 	   42.0000 	   24.0870 
    1.0605 	   47.8560 	    2.0000 	   42.0000 	   24.1190 
    1.2131 	   47.9240 	    2.0000 	   42.0000 	   24.1530 
    1.2284 	   47.9900 	    2.0000 	   42.0000 	   24.1860 
    1.3046 	   48.0560 	    2.0000 	   42.0000 	   24.2190 
    1.2131 	   48.1260 	    2.0000 	   42.0000 	   24.2540 
    1.3199 	   48.1940 	    2.0000 	   42.0000 	   24.2880 
    1.0910 	   48.2620 	    2.0000 	   42.0000 	   24.3220 
    1.4420 	   48.3300 	    2.0000 	   42.0000 	   24.3560 
    1.1978 	   48.3980 	    2.0000 	   42.0000 	   24.3900 
    1.1368 	   48.4660 	    2.0000 	   42.0000 	   24.4240 
    1.1978 	   48.5360 	    2.0000 	   42.0000 	   24.4590 
    1.1215 	   48.6060 	    2.0000 	   42.0000 	   24.4940 
    1.4420 	   48.6740 	    2.0000 	   42.0000 	   24.5280 
    1.1215 	   48.7420 	    2.0000 	   42.0000 	   24.5620 
    1.2589 	   48.8020 	    2.0000 	   42.0000 	   24.5920 
    1.1063 	   48.8700 	    2.0000 	   42.0000 	   24.6260 
    1.2589 	   48.9400 	    2.0000 	   42.0000 	   24.6610 
    1.3657 	   49.0040 	    2.0000 	   42.0000 	   24.6930 
    1.4878 	   49.0720 	    2.0000 	   42.0000 	   24.7270 
    1.2436 	   49.1440 	    2.0000 	   42.0000 	   24.7631 
    1.1978 	   49.2120 	    2.0000 	   42.0000 	   24.7971 
    1.3352 	   49.2820 	    2.0000 	   42.0000 	   24.8321 
    1.3046 	   49.3460 	    2.0000 	   42.0000 	   24.8641 
    1.0910 	   49.4160 	    2.0000 	   42.0000 	   24.8991 
    1.2131 	   49.4820 	    2.0000 	   42.0000 	   24.9321 
    1.5030 	   49.5480 	    2.0000 	   42.0000 	   24.9651 
    1.1978 	   49.6160 	    2.0000 	   42.0000 	   24.9991 
    1.3046 	   49.6840 	    2.0000 	   42.0000 	   25.0331 
    1.2436 	   49.7520 	    2.0000 	   42.0000 	   25.0671 
    1.2131 	   49.8140 	    2.0000 	   42.0000 	   25.0981 
    1.2741 	   49.8840 	    2.0000 	   42.0000 	   25.1331 
    0.9232 	   49.9500 	    2.0000 	   42.0000 	   25.1661 
    1.2131 	   50.0180 	    2.0000 	   42.0000 	   25.2001 
    1.2131 	   50.0820 	    2.0000 	   42.0000 	   25.2321 
    0.9384 	   50.1540 	    2.0000 	   42.0000 	   25.2681 
    1.2894 	   50.2200 	    2.0000 	   42.0000 	   25.3011 
    1.2436 	   50.2880 	    2.0000 	   42.0000 	   25.3351 
    1.2436 	   50.3560 	    2.0000 	   42.0000 	   25.3691 
    1.3046 	   50.4220 	    2.0000 	   42.0000 	   25.4021 
    0.9384 	   50.4900 	    2.0000 	   42.0000 	   25.4361 
    1.3962 	   50.5560 	    2.0000 	   42.0000 	   25.4691 
    1.1673 	   50.6220 	    2.0000 	   42.0000 	   25.5021 
    1.1978 	   50.6860 	    2.0000 	   42.0000 	   25.5341 
    1.2589 	   50.7540 	    2.0000 	   42.0000 	   25.5681 
    1.3199 	   50.8180 	    2.0000 	   42.0000 	   25.6001 
    1.4420 	   50.8820 	    2.0000 	   42.0000 	   25.6321 
    1.4267 	   50.9520 	    2.0000 	   42.0000 	   25.6671 
    1.3199 	   51.0180 	    2.0000 	   42.0000 	   25.7001 
    1.3657 	   51.0860 	    2.0000 	   42.0000 	   25.7341 
    1.1521 	   51.1640 	    2.0000 	   42.0000 	   25.7731 
    1.3046 	   51.2340 	    2.0000 	   42.0000 	   25.8081 
    1.3809 	   51.3020 	    2.0000 	   42.0000 	   25.8421 
    1.3199 	   51.3720 	    2.0000 	   42.0000 	   25.8771 
    1.3046 	   51.4400 	    2.0000 	   42.0000 	   25.9111 
    1.3809 	   51.5080 	    2.0000 	   42.0000 	   25.9451 
    1.2894 	   51.5740 	    2.0000 	   42.0000 	   25.9781 
    1.3046 	   51.6420 	    2.0000 	   42.0000 	   26.0121 
    1.3657 	   51.7100 	    2.0000 	   42.0000 	   26.0461 
    1.2284 	   51.7780 	    2.0000 	   42.0000 	   26.0801 
    1.4878 	   51.8460 	    2.0000 	   42.0000 	   26.1141 
    1.2741 	   51.9120 	    2.0000 	   42.0000 	   26.1471 
    1.3046 	   51.9800 	    2.0000 	   42.0000 	   26.1811 
    1.3504 	   52.0500 	    2.0000 	   42.0000 	   26.2161 
    1.4267 	   52.1220 	    2.0000 	   42.0000 	   26.2521 
    1.1826 	   52.2040 	    2.0000 	   42.0000 	   26.2931 
    1.2436 	   52.2700 	    2.0000 	   42.0000 	   26.3261 
    1.2589 	   52.3400 	    2.0000 	   42.0000 	   26.3611 
    1.2589 	   52.4100 	    2.0000 	   42.0000 	   26.3961 
    1.2741 	   52.4780 	    2.0000 	   42.0000 	   26.4301 
    1.3504 	   52.5460 	    2.0000 	   42.0000 	   26.4641 
    1.3809 	   52.6140 	    2.0000 	   42.0000 	   26.4981 
    1.4115 	   52.6780 	    2.0000 	   42.0000 	   26.5302 
    1.2589 	   52.7440 	    2.0000 	   42.0000 	   26.5632 
    1.3199 	   52.8160 	    2.0000 	   42.0000 	   26.5992 
    1.2589 	   52.8800 	    2.0000 	   42.0000 	   26.6312 
    1.4267 	   52.9520 	    2.0000 	   42.0000 	   26.6672 
    1.4267 	   53.0220 	    2.0000 	   42.0000 	   26.7022 
    1.3657 	   53.0920 	    2.0000 	   42.0000 	   26.7372 
    1.4267 	   53.1680 	    2.0000 	   42.0000 	   26.7752 
    1.2589 	   53.2360 	    2.0000 	   42.0000 	   26.8092 
    1.3199 	   53.3060 	    2.0000 	   42.0000 	   26.8442 
    1.3962 	   53.3740 	    2.0000 	   42.0000 	   26.8782 
    1.3352 	   53.4420 	    2.0000 	   42.0000 	   26.9122 
    1.2741 	   53.5100 	    2.0000 	   42.0000 	   26.9462 
    1.2589 	   53.5780 	    2.0000 	   42.0000 	   26.9802 
    1.2741 	   53.6500 	    2.0000 	   42.0000 	   27.0162 
    1.3962 	   53.7180 	    2.0000 	   42.0000 	   27.0502 
    1.2589 	   53.7840 	    2.0000 	   42.0000 	   27.0832 
    1.3504 	   53.8520 	    2.0000 	   42.0000 	   27.1172 
    1.3199 	   53.9220 	    2.0000 	   42.0000 	   27.1522 
    1.1368 	   53.9900 	    2.0000 	   42.0000 	   27.1862 
    1.1978 	   54.0580 	    2.0000 	   42.0000 	   27.2202 
    1.5183 	   54.1280 	    2.0000 	   42.0000 	   27.2552 
    1.3046 	   54.2020 	    2.0000 	   42.0000 	   27.2922 
    1.3199 	   54.2740 	    2.0000 	   42.0000 	   27.3282 
    1.4420 	   54.3440 	    2.0000 	   42.0000 	   27.3632 
    1.3657 	   54.4120 	    2.0000 	   42.0000 	   27.3972 
    1.0910 	   54.4820 	    2.0000 	   42.0000 	   27.4322 
    1.3962 	   54.5460 	    2.0000 	   42.0000 	   27.4642 
    1.3809 	   54.6120 	    2.0000 	   42.0000 	   27.4972 
    1.2894 	   54.6840 	    2.0000 	   42.0000 	   27.5332 
    1.4267 	   54.7520 	    2.0000 	   42.0000 	   27.5672 
    1.2894 	   54.8240 	    2.0000 	   42.0000 	   27.6032 
    1.3657 	   54.8920 	    2.0000 	   42.0000 	   27.6372 
    1.3962 	   54.9600 	    2.0000 	   42.0000 	   27.6712 
    1.3352 	   55.0260 	    2.0000 	   42.0000 	   27.7042 
    1.3962 	   55.0900 	    2.0000 	   42.0000 	   27.7362 
    1.1826 	   55.1680 	    2.0000 	   42.0000 	   27.7752 
    1.3352 	   55.2400 	    2.0000 	   42.0000 	   27.8112 
    1.3809 	   55.3080 	    2.0000 	   42.0000 	   27.8452 
    1.5488 	   55.3780 	    2.0000 	   42.0000 	   27.8802 
    1.2589 	   55.4460 	    2.0000 	   42.0000 	   27.9142 
    1.2589 	   55.5160 	    2.0000 	   42.0000 	   27.9492 
    1.4572 	   55.5840 	    2.0000 	   42.0000 	   27.9832 
    1.4420 	   55.6540 	    2.0000 	   42.0000 	   28.0182 
    1.4572 	   55.7220 	    2.0000 	   42.0000 	   28.0522 
    1.3504 	   55.7940 	    2.0000 	   42.0000 	   28.0882 
    1.3962 	   55.8600 	    2.0000 	   42.0000 	   28.1212 
    1.3657 	   55.9260 	    2.0000 	   42.0000 	   28.1542 
    1.4267 	   55.9940 	    2.0000 	   42.0000 	   28.1882 
    1.3046 	   56.0620 	    2.0000 	   42.0000 	   28.2222 
    1.4878 	   56.1300 	    2.0000 	   42.0000 	   28.2562 
    1.3657 	   56.2060 	    2.0000 	   42.0000 	   28.2943 
    1.4115 	   56.2760 	    2.0000 	   42.0000 	   28.3293 
    1.3199 	   56.3460 	    2.0000 	   42.0000 	   28.3643 
    1.4267 	   56.4180 	    2.0000 	   42.0000 	   28.4003 
    1.5030 	   56.4860 	    2.0000 	   42.0000 	   28.4343 
    1.3046 	   56.5560 	    2.0000 	   42.0000 	   28.4693 
    1.3657 	   56.6280 	    2.0000 	   42.0000 	   28.5053 
    1.3504 	   56.7000 	    2.0000 	   42.0000 	   28.5413 
    1.4725 	   56.7700 	    2.0000 	   42.0000 	   28.5763 
    1.3504 	   56.8400 	    2.0000 	   42.0000 	   28.6113 
    1.3504 	   56.9060 	    2.0000 	   42.0000 	   28.6443 
    1.4115 	   56.9740 	    2.0000 	   42.0000 	   28.6783 
    1.4878 	   57.0440 	    2.0000 	   42.0000 	   28.7133 
    1.3504 	   57.1160 	    2.0000 	   42.0000 	   28.7493 
    1.4267 	   57.1880 	    2.0000 	   42.0000 	   28.7853 
    1.0300 	   57.2580 	    2.0000 	   42.0000 	   28.8203 
    1.2741 	   57.3260 	    2.0000 	   42.0000 	   28.8543 
    1.4878 	   57.3980 	    2.0000 	   42.0000 	   28.8903 
    1.3809 	   57.4620 	    2.0000 	   42.0000 	   28.9223 
    1.3657 	   57.5280 	    2.0000 	   42.0000 	   28.9553 
    1.3199 	   57.6000 	    2.0000 	   42.0000 	   28.9913 
    1.3352 	   57.6660 	    2.0000 	   42.0000 	   29.0243 
    1.2436 	   57.7320 	    2.0000 	   42.0000 	   29.0573 
    1.4267 	   57.8020 	    2.0000 	   42.0000 	   29.0923 
    1.3657 	   57.8720 	    2.0000 	   42.0000 	   29.1273 
    1.3809 	   57.9460 	    2.0000 	   42.0000 	   29.1643 
    1.2589 	   58.0140 	    2.0000 	   42.0000 	   29.1983 
    1.4420 	   58.0840 	    2.0000 	   42.0000 	   29.2333 
    1.5793 	   58.1620 	    2.0000 	   42.0000 	   29.2723 
    1.1978 	   58.2340 	    2.0000 	   42.0000 	   29.3083 
    1.4725 	   58.3020 	    2.0000 	   42.0000 	   29.3423 
    1.4420 	   58.3740 	    2.0000 	   42.0000 	   29.3783 
    1.3199 	   58.4420 	    2.0000 	   42.0000 	   29.4123 
    1.3199 	   58.5100 	    2.0000 	   42.0000 	   29.4463 
    1.5183 	   58.5800 	    2.0000 	   42.0000 	   29.4813 
    1.4725 	   58.6500 	    2.0000 	   42.0000 	   29.5163 
    1.4420 	   58.7160 	    2.0000 	   42.0000 	   29.5493 
    1.5488 	   58.7860 	    2.0000 	   42.0000 	   29.5843 
    1.4725 	   58.8540 	    2.0000 	   42.0000 	   29.6183 
    1.5488 	   58.9220 	    2.0000 	   42.0000 	   29.6523 
    1.5488 	   58.9900 	    2.0000 	   42.0000 	   29.6863 
    1.4878 	   59.0580 	    2.0000 	   42.0000 	   29.7203 
    1.4267 	   59.1320 	    2.0000 	   42.0000 	   29.7573 
    1.5488 	   59.2120 	    2.0000 	   42.0000 	   29.7973 
    1.5946 	   59.2800 	    2.0000 	   42.0000 	   29.8313 
    1.4267 	   59.3500 	    2.0000 	   42.0000 	   29.8663 
    1.4115 	   59.4200 	    2.0000 	   42.0000 	   29.9013 
    1.4420 	   59.4880 	    2.0000 	   42.0000 	   29.9353 
    1.4725 	   59.5600 	    2.0000 	   42.0000 	   29.9713 
    1.5793 	   59.6280 	    2.0000 	   42.0000 	   30.0054 
    1.6861 	   59.6980 	    2.0000 	   42.0000 	   30.0404 
    1.6403 	   59.7660 	    2.0000 	   42.0000 	   30.0744 
    1.5946 	   59.8360 	    2.0000 	   42.0000 	   30.1094 
    1.5335 	   59.9080 	    2.0000 	   42.0000 	   30.1454 
    1.4878 	   59.9800 	    2.0000 	   42.0000 	   30.1814 
    1.5793 	   60.0440 	    2.0000 	   42.0000 	   30.2134 
    1.3657 	   60.1140 	    2.0000 	   42.0000 	   30.2484 
    1.2894 	   60.1840 	    2.0000 	   42.0000 	   30.2834 
    1.3657 	   60.2420 	    2.0000 	   42.0000 	   30.3124 
    1.5488 	   60.3060 	    2.0000 	   42.0000 	   30.3444 
    1.5183 	   60.3720 	    2.0000 	   42.0000 	   30.3774 
    1.3809 	   60.4300 	    2.0000 	   42.0000 	   30.4064 
    1.4267 	   60.4960 	    2.0000 	   42.0000 	   30.4394 
    1.5183 	   60.5640 	    2.0000 	   42.0000 	   30.4734 
    1.4420 	   60.6320 	    2.0000 	   42.0000 	   30.5074 
    1.3962 	   60.7020 	    2.0000 	   42.0000 	   30.5424 
    1.5488 	   60.7640 	    2.0000 	   42.0000 	   30.5734 
    1.4267 	   60.8320 	    2.0000 	   42.0000 	   30.6074 
    1.3962 	   60.9340 	    2.0000 	   42.0000 	   30.6584 
    1.5183 	   60.9920 	    2.0000 	   42.0000 	   30.6874 
    1.4115 	   61.0600 	    2.0000 	   42.0000 	   30.7214 
    1.3199 	   61.1300 	    2.0000 	   42.0000 	   30.7564 
    1.3504 	   61.1980 	    2.0000 	   42.0000 	   30.7904 
    1.3809 	   61.2620 	    2.0000 	   42.0000 	   30.8224 
    1.4572 	   61.3340 	    2.0000 	   42.0000 	   30.8584 
    1.4267 	   61.4020 	    2.0000 	   42.0000 	   30.8924 
    1.3504 	   61.4680 	    2.0000 	   42.0000 	   30.9254 
    1.3657 	   61.5380 	    2.0000 	   42.0000 	   30.9604 
    1.3657 	   61.5980 	    2.0000 	   42.0000 	   30.9904 
    1.3657 	   61.6640 	    2.0000 	   42.0000 	   31.0234 
    1.4115 	   61.7280 	    2.0000 	   42.0000 	   31.0554 
    1.4420 	   61.7880 	    2.0000 	   42.0000 	   31.0854 
    1.3657 	   61.8480 	    2.0000 	   42.0000 	   31.1154 
    1.0758 	   61.9080 	    2.0000 	   42.0000 	   31.1454 
    1.4878 	   61.9680 	    2.0000 	   42.0000 	   31.1754 
    1.2894 	   62.0280 	    2.0000 	   42.0000 	   31.2054 
    1.3504 	   62.0900 	    2.0000 	   42.0000 	   31.2364 
    1.4725 	   62.1540 	    2.0000 	   42.0000 	   31.2684 
    1.3046 	   62.2160 	    2.0000 	   42.0000 	   31.2994 
    1.4115 	   62.2740 	    2.0000 	   42.0000 	   31.3284 
    1.4267 	   62.3360 	    2.0000 	   42.0000 	   31.3594 
    1.3046 	   62.3960 	    2.0000 	   42.0000 	   31.3894 
    1.3352 	   62.4560 	    2.0000 	   42.0000 	   31.4194 
    1.2589 	   62.5160 	    2.0000 	   42.0000 	   31.4494 
    1.2894 	   62.5760 	    2.0000 	   42.0000 	   31.4794 
    1.4115 	   62.6380 	    2.0000 	   42.0000 	   31.5104 
    1.3504 	   62.6980 	    2.0000 	   42.0000 	   31.5404 
    1.3504 	   62.7560 	    2.0000 	   42.0000 	   31.5694 
    1.3504 	   62.8180 	    2.0000 	   42.0000 	   31.6004 
    1.3504 	   62.8760 	    2.0000 	   42.0000 	   31.6294 
    1.3809 	   62.9420 	    2.0000 	   42.0000 	   31.6624 
    1.1521 	   63.0120 	    2.0000 	   42.0000 	   31.6974 
    1.3199 	   63.0800 	    2.0000 	   42.0000 	   31.7314 
    1.1826 	   63.1480 	    2.0000 	   42.0000 	   31.7654 
    1.3504 	   63.2140 	    2.0000 	   42.0000 	   31.7985 
    1.2894 	   63.2800 	    2.0000 	   42.0000 	   31.8315 
    1.2284 	   63.3500 	    2.0000 	   42.0000 	   31.8665 
    1.2589 	   63.4200 	    2.0000 	   42.0000 	   31.9015 
    1.2894 	   63.4900 	    2.0000 	   42.0000 	   31.9365 
    1.3199 	   63.5560 	    2.0000 	   42.0000 	   31.9695 
    1.1521 	   63.6240 	    2.0000 	   42.0000 	   32.0035 
    1.2894 	   63.6940 	    2.0000 	   42.0000 	   32.0385 
    1.2131 	   63.7660 	    2.0000 	   42.0000 	   32.0745 
    1.2436 	   63.8380 	    2.0000 	   42.0000 	   32.1105 
    1.2741 	   63.9080 	    2.0000 	   42.0000 	   32.1455 
    1.2284 	   63.9800 	    2.0000 	   42.0000 	   32.1815 
    1.0452 	   64.0500 	    2.0000 	   42.0000 	   32.2165 
    1.1826 	   64.1140 	    2.0000 	   42.0000 	   32.2485 
    1.2894 	   64.1880 	    2.0000 	   42.0000 	   32.2855 
    1.3199 	   64.2560 	    2.0000 	   42.0000 	   32.3195 
    1.2894 	   64.3280 	    2.0000 	   42.0000 	   32.3555 
    1.2436 	   64.3960 	    2.0000 	   42.0000 	   32.3895 
    1.1521 	   64.4660 	    2.0000 	   42.0000 	   32.4245 
    1.1673 	   64.5360 	    2.0000 	   42.0000 	   32.4595 
    1.2589 	   64.6060 	    2.0000 	   42.0000 	   32.4945 
    1.1368 	   64.6760 	    2.0000 	   42.0000 	   32.5295 
    1.2741 	   64.7480 	    2.0000 	   42.0000 	   32.5655 
    1.2131 	   64.8200 	    2.0000 	   42.0000 	   32.6015 
    1.3657 	   64.8900 	    2.0000 	   42.0000 	   32.6365 
    1.1826 	   64.9600 	    2.0000 	   42.0000 	   32.6715 
    1.3809 	   65.0280 	    2.0000 	   42.0000 	   32.7055 
    1.1368 	   65.1000 	    2.0000 	   42.0000 	   32.7415 
    1.2589 	   65.1780 	    2.0000 	   42.0000 	   32.7805 
    1.2131 	   65.2480 	    2.0000 	   42.0000 	   32.8155 
    1.2741 	   65.3260 	    2.0000 	   42.0000 	   32.8545 
    1.0758 	   65.3940 	    2.0000 	   42.0000 	   32.8885 
    1.2131 	   65.4680 	    2.0000 	   42.0000 	   32.9255 
    1.1368 	   65.5420 	    2.0000 	   42.0000 	   32.9625 
    1.1673 	   65.6120 	    2.0000 	   42.0000 	   32.9975 
    1.1978 	   65.6880 	    2.0000 	   42.0000 	   33.0355 
    1.1215 	   65.7540 	    2.0000 	   42.0000 	   33.0685 
    1.3504 	   65.8240 	    2.0000 	   42.0000 	   33.1035 
    1.2589 	   65.8960 	    2.0000 	   42.0000 	   33.1395 
    1.2436 	   65.9660 	    2.0000 	   42.0000 	   33.1745 
    1.1978 	   66.0380 	    2.0000 	   42.0000 	   33.2105 
    1.0910 	   66.1080 	    2.0000 	   42.0000 	   33.2455 
    1.3352 	   66.1860 	    2.0000 	   42.0000 	   33.2845 
    1.0147 	   66.2600 	    2.0000 	   42.0000 	   33.3215 
    1.1521 	   66.3320 	    2.0000 	   42.0000 	   33.3575 
    1.1978 	   66.4020 	    2.0000 	   42.0000 	   33.3925 
    1.0605 	   66.4720 	    2.0000 	   42.0000 	   33.4275 
    1.2436 	   66.5400 	    2.0000 	   42.0000 	   33.4615 
    0.9842 	   66.6120 	    2.0000 	   42.0000 	   33.4976 
    1.0910 	   66.6800 	    2.0000 	   42.0000 	   33.5316 
    1.1063 	   66.7520 	    2.0000 	   42.0000 	   33.5676 
    1.1215 	   66.8200 	    2.0000 	   42.0000 	   33.6016 
    1.0605 	   66.8920 	    2.0000 	   42.0000 	   33.6376 
    1.1521 	   66.9660 	    2.0000 	   42.0000 	   33.6746 
    1.0605 	   67.0320 	    2.0000 	   42.0000 	   33.7076 
    1.1215 	   67.1040 	    2.0000 	   42.0000 	   33.7436 
    0.9689 	   67.1760 	    2.0000 	   42.0000 	   33.7796 
    1.3352 	   67.2460 	    2.0000 	   42.0000 	   33.8146 
    1.1215 	   67.3160 	    2.0000 	   42.0000 	   33.8496 
    1.1215 	   67.3880 	    2.0000 	   42.0000 	   33.8856 
    1.1826 	   67.4580 	    2.0000 	   42.0000 	   33.9206 
    0.9842 	   67.5240 	    2.0000 	   42.0000 	   33.9536 
    1.1978 	   67.5960 	    2.0000 	   42.0000 	   33.9896 
    1.0452 	   67.6620 	    2.0000 	   42.0000 	   34.0226 
    1.0300 	   67.7280 	    2.0000 	   42.0000 	   34.0556 
    1.1978 	   67.8000 	    2.0000 	   42.0000 	   34.0916 
    1.0452 	   67.9060 	    2.0000 	   42.0000 	   34.1446 
    1.0605 	   67.9680 	    2.0000 	   42.0000 	   34.1756 
    1.0147 	   68.0340 	    2.0000 	   42.0000 	   34.2086 
    1.3504 	   68.0940 	    2.0000 	   42.0000 	   34.2386 
    0.9079 	   68.1620 	    2.0000 	   42.0000 	   34.2726 
    1.1826 	   68.2300 	    2.0000 	   42.0000 	   34.3066 
    1.1368 	   68.2920 	    2.0000 	   42.0000 	   34.3376 
    1.0910 	   68.3560 	    2.0000 	   42.0000 	   34.3696 
    0.8927 	   68.4200 	    2.0000 	   42.0000 	   34.4016 
    0.9689 	   68.4840 	    2.0000 	   42.0000 	   34.4336 
    1.1063 	   68.5500 	    2.0000 	   42.0000 	   34.4666 
    1.2131 	   68.6140 	    2.0000 	   42.0000 	   34.4986 
    1.1215 	   68.6860 	    2.0000 	   42.0000 	   34.5346 
    0.9995 	   68.7580 	    2.0000 	   42.0000 	   34.5706 
    1.1673 	   68.8340 	    2.0000 	   42.0000 	   34.6086 
    1.0910 	   68.9340 	    2.0000 	   42.0000 	   34.6586 
    1.0758 	   68.9920 	    2.0000 	   42.0000 	   34.6876 
    1.1673 	   69.0620 	    2.0000 	   42.0000 	   34.7226 
    1.0910 	   69.1300 	    2.0000 	   42.0000 	   34.7566 
    1.0910 	   69.2000 	    2.0000 	   42.0000 	   34.7916 
    1.0605 	   69.2700 	    2.0000 	   42.0000 	   34.8266 
    1.0452 	   69.3380 	    2.0000 	   42.0000 	   34.8606 
    1.0605 	   69.4060 	    2.0000 	   42.0000 	   34.8946 
    1.0605 	   69.4760 	    2.0000 	   42.0000 	   34.9296 
    1.0147 	   69.5420 	    2.0000 	   42.0000 	   34.9626 
    1.0452 	   69.6060 	    2.0000 	   42.0000 	   34.9946 
    0.9995 	   69.6700 	    2.0000 	   42.0000 	   35.0266 
    1.0147 	   69.7320 	    2.0000 	   42.0000 	   35.0576 
    1.0147 	   69.8060 	    2.0000 	   42.0000 	   35.0946 
    0.8011 	   69.8720 	    2.0000 	   42.0000 	   35.1276 
    1.0147 	   69.9320 	    2.0000 	   42.0000 	   35.1576 
    1.0147 	   69.9980 	    2.0000 	   42.0000 	   35.1906 
    1.1521 	   70.0600 	    2.0000 	   42.0000 	   35.2216 
    1.0452 	   70.1260 	    2.0000 	   42.0000 	   35.2537 
    0.9384 	   70.1940 	    2.0000 	   42.0000 	   35.2877 
    1.0300 	   70.2580 	    2.0000 	   42.0000 	   35.3197 
    1.2131 	   70.3220 	    2.0000 	   42.0000 	   35.3517 
    1.1368 	   70.3840 	    2.0000 	   42.0000 	   35.3827 
    1.0452 	   70.4480 	    2.0000 	   42.0000 	   35.4147 
    0.9842 	   70.5120 	    2.0000 	   42.0000 	   35.4467 
    0.9384 	   70.5800 	    2.0000 	   42.0000 	   35.4807 
    1.0605 	   70.6500 	    2.0000 	   42.0000 	   35.5157 
    0.8927 	   70.7180 	    2.0000 	   42.0000 	   35.5497 
    1.1063 	   70.7880 	    2.0000 	   42.0000 	   35.5847 
    1.0147 	   70.8600 	    2.0000 	   42.0000 	   35.6207 
    0.9689 	   70.9280 	    2.0000 	   42.0000 	   35.6547 
    1.0452 	   71.0000 	    2.0000 	   42.0000 	   35.6907 
    0.9842 	   71.0720 	    2.0000 	   42.0000 	   35.7267 
    1.0300 	   71.1420 	    2.0000 	   42.0000 	   35.7617 
    0.9995 	   71.2140 	    2.0000 	   42.0000 	   35.7977 
    0.6790 	   71.2860 	    2.0000 	   42.0000 	   35.8337 
    0.9079 	   71.3580 	    2.0000 	   42.0000 	   35.8697 
    0.9842 	   71.4320 	    2.0000 	   42.0000 	   35.9067 
    0.6332 	   71.5000 	    2.0000 	   42.0000 	   35.9407 
    1.0147 	   71.5760 	    2.0000 	   42.0000 	   35.9787 
    1.0758 	   71.6460 	    2.0000 	   42.0000 	   36.0137 
    0.8469 	   71.7160 	    2.0000 	   42.0000 	   36.0487 
    1.0452 	   71.7920 	    2.0000 	   42.0000 	   36.0867 
    0.8927 	   71.8660 	    2.0000 	   42.0000 	   36.1237 
    0.9689 	   71.9340 	    2.0000 	   42.0000 	   36.1577 
    0.9537 	   72.0060 	    2.0000 	   42.0000 	   36.1937 
    0.9384 	   72.0740 	    2.0000 	   42.0000 	   36.2277 
    1.0605 	   72.1520 	    2.0000 	   42.0000 	   36.2667 
    1.0452 	   72.2200 	    2.0000 	   42.0000 	   36.3007 
    0.9995 	   72.2920 	    2.0000 	   42.0000 	   36.3367 
    0.9232 	   72.3560 	    2.0000 	   42.0000 	   36.3687 
    1.0758 	   72.4220 	    2.0000 	   42.0000 	   36.4017 
    0.9384 	   72.4860 	    2.0000 	   42.0000 	   36.4337 
    0.9079 	   72.5520 	    2.0000 	   42.0000 	   36.4667 
    1.0300 	   72.6140 	    2.0000 	   42.0000 	   36.4977 
    0.8927 	   72.6780 	    2.0000 	   42.0000 	   36.5297 
    0.9842 	   72.7440 	    2.0000 	   42.0000 	   36.5627 
    0.6485 	   72.8040 	    2.0000 	   42.0000 	   36.5927 
    0.9384 	   72.8640 	    2.0000 	   42.0000 	   36.6227 
    0.9384 	   72.9360 	    2.0000 	   42.0000 	   36.6587 
    0.9842 	   73.0100 	    2.0000 	   42.0000 	   36.6957 
    0.9384 	   73.0820 	    2.0000 	   42.0000 	   36.7317 
    0.9232 	   73.1540 	    2.0000 	   42.0000 	   36.7677 
    0.7401 	   73.2240 	    2.0000 	   42.0000 	   36.8027 
    0.8774 	   73.2960 	    2.0000 	   42.0000 	   36.8387 
    0.9384 	   73.3660 	    2.0000 	   42.0000 	   36.8737 
    0.9537 	   73.4340 	    2.0000 	   42.0000 	   36.9077 
    0.9995 	   73.5040 	    2.0000 	   42.0000 	   36.9427 
    1.0758 	   73.5760 	    2.0000 	   42.0000 	   36.9787 
    0.8927 	   73.6480 	    2.0000 	   42.0000 	   37.0148 
    1.0605 	   73.7280 	    2.0000 	   42.0000 	   37.0548 
    0.9842 	   73.7980 	    2.0000 	   42.0000 	   37.0898 
    0.9384 	   73.8720 	    2.0000 	   42.0000 	   37.1268 
    0.9232 	   73.9440 	    2.0000 	   42.0000 	   37.1628 
    0.9842 	   74.0180 	    2.0000 	   42.0000 	   37.1998 
    0.9232 	   74.0920 	    2.0000 	   42.0000 	   37.2368 
    0.8927 	   74.1680 	    2.0000 	   42.0000 	   37.2748 
    1.0300 	   74.2420 	    2.0000 	   42.0000 	   37.3118 
    1.0605 	   74.3120 	    2.0000 	   42.0000 	   37.3468 
    0.9689 	   74.3860 	    2.0000 	   42.0000 	   37.3838 
    0.8927 	   74.4520 	    2.0000 	   42.0000 	   37.4168 
    1.1673 	   74.5180 	    2.0000 	   42.0000 	   37.4498 
    1.0452 	   74.5860 	    2.0000 	   42.0000 	   37.4838 
    0.8774 	   74.6520 	    2.0000 	   42.0000 	   37.5168 
    0.8164 	   74.7160 	    2.0000 	   42.0000 	   37.5488 
    1.0452 	   74.7780 	    2.0000 	   42.0000 	   37.5798 
    0.9995 	   74.8420 	    2.0000 	   42.0000 	   37.6118 
    0.8927 	   74.9080 	    2.0000 	   42.0000 	   37.6448 
    1.0910 	   74.9780 	    2.0000 	   42.0000 	   37.6798 
    0.7553 	   75.0540 	    2.0000 	   42.0000 	   37.7178 
    0.9995 	   75.1300 	    2.0000 	   42.0000 	   37.7558 
    0.9384 	   75.2020 	    2.0000 	   42.0000 	   37.7918 
    0.8621 	   75.2780 	    2.0000 	   42.0000 	   37.8298 
    0.8927 	   75.3500 	    2.0000 	   42.0000 	   37.8658 
    0.9537 	   75.4220 	    2.0000 	   42.0000 	   37.9018 
    0.9384 	   75.4980 	    2.0000 	   42.0000 	   37.9398 
    1.0452 	   75.5720 	    2.0000 	   42.0000 	   37.9768 
    0.9079 	   75.6440 	    2.0000 	   42.0000 	   38.0128 
    0.9537 	   75.7140 	    2.0000 	   42.0000 	   38.0478 
    0.9995 	   75.7840 	    2.0000 	   42.0000 	   38.0828 
    0.8164 	   75.8600 	    2.0000 	   42.0000 	   38.1208 
    0.8469 	   75.9340 	    2.0000 	   42.0000 	   38.1578 
    0.8316 	   76.0040 	    2.0000 	   42.0000 	   38.1928 
    0.9232 	   76.0760 	    2.0000 	   42.0000 	   38.2288 
    1.0452 	   76.1520 	    2.0000 	   42.0000 	   38.2668 
    1.0605 	   76.2240 	    2.0000 	   42.0000 	   38.3028 
    1.0605 	   76.2940 	    2.0000 	   42.0000 	   38.3378 
    1.0147 	   76.3600 	    2.0000 	   42.0000 	   38.3708 
    0.9689 	   76.4320 	    2.0000 	   42.0000 	   38.4068 
    0.8621 	   76.5020 	    2.0000 	   42.0000 	   38.4418 
    0.9079 	   76.5720 	    2.0000 	   42.0000 	   38.4768 
    0.9689 	   76.6380 	    2.0000 	   42.0000 	   38.5098 
    0.6180 	   76.7060 	    2.0000 	   42.0000 	   38.5438 
    0.7706 	   76.7680 	    2.0000 	   42.0000 	   38.5748 
    0.5417 	   76.8300 	    2.0000 	   42.0000 	   38.6058 
    0.9537 	   76.9000 	    2.0000 	   42.0000 	   38.6408 
    0.9689 	   76.9700 	    2.0000 	   42.0000 	   38.6758 
    0.9537 	   77.0420 	    2.0000 	   42.0000 	   38.7118 
    0.9537 	   77.1140 	    2.0000 	   42.0000 	   38.7478 
    0.8164 	   77.1900 	    2.0000 	   42.0000 	   38.7859 
    0.8164 	   77.2600 	    2.0000 	   42.0000 	   38.8209 
    0.8011 	   77.3320 	    2.0000 	   42.0000 	   38.8569 
    0.5722 	   77.4040 	    2.0000 	   42.0000 	   38.8929 
    0.9079 	   77.4740 	    2.0000 	   42.0000 	   38.9279 
    0.8621 	   77.5460 	    2.0000 	   42.0000 	   38.9639 
    0.9232 	   77.6240 	    2.0000 	   42.0000 	   39.0029 
    0.8621 	   77.6920 	    2.0000 	   42.0000 	   39.0369 
    0.8621 	   77.7660 	    2.0000 	   42.0000 	   39.0739 
    0.9689 	   77.8400 	    2.0000 	   42.0000 	   39.1109 
    0.9232 	   77.9120 	    2.0000 	   42.0000 	   39.1469 
    0.7706 	   77.9800 	    2.0000 	   42.0000 	   39.1809 
    0.8774 	   78.0480 	    2.0000 	   42.0000 	   39.2149 
    0.8011 	   78.1160 	    2.0000 	   42.0000 	   39.2489 
    0.8316 	   78.1960 	    2.0000 	   42.0000 	   39.2889 
    0.8469 	   78.2660 	    2.0000 	   42.0000 	   39.3239 
    0.9079 	   78.3520 	    2.0000 	   42.0000 	   39.3669 
    0.7858 	   78.4300 	    2.0000 	   42.0000 	   39.4059 
    0.7706 	   78.4940 	    2.0000 	   42.0000 	   39.4379 
    0.8469 	   78.5640 	    2.0000 	   42.0000 	   39.4729 
    0.7553 	   78.6280 	    2.0000 	   42.0000 	   39.5049 
    0.8469 	   78.6920 	    2.0000 	   42.0000 	   39.5369 
    0.9689 	   78.7540 	    2.0000 	   42.0000 	   39.5679 
    0.9232 	   78.8160 	    2.0000 	   42.0000 	   39.5989 
    0.8164 	   78.8800 	    2.0000 	   42.0000 	   39.6309 
    0.8774 	   78.9540 	    2.0000 	   42.0000 	   39.6679 
    0.9537 	   79.0260 	    2.0000 	   42.0000 	   39.7039 
    1.0300 	   79.0980 	    2.0000 	   42.0000 	   39.7399 
    0.8011 	   79.1740 	    2.0000 	   42.0000 	   39.7779 
    0.8316 	   79.2440 	    2.0000 	   42.0000 	   39.8129 
    0.8316 	   79.3200 	    2.0000 	   42.0000 	   39.8509 
    0.5722 	   79.3960 	    2.0000 	   42.0000 	   39.8889 
    0.8927 	   79.4640 	    2.0000 	   42.0000 	   39.9229 
    0.9232 	   79.5360 	    2.0000 	   42.0000 	   39.9589 
    0.8621 	   79.6100 	    2.0000 	   42.0000 	   39.9959 
    0.8621 	   79.6820 	    2.0000 	   42.0000 	   40.0319 
    0.9689 	   79.7500 	    2.0000 	   42.0000 	   40.0659 
    0.8011 	   79.8260 	    2.0000 	   42.0000 	   40.1039 
    0.8011 	   79.8980 	    2.0000 	   42.0000 	   40.1399 
    0.7553 	   79.9720 	    2.0000 	   42.0000 	   40.1769 
    0.8316 	   80.0400 	    2.0000 	   42.0000 	   40.2109 
    0.9537 	   80.1140 	    2.0000 	   42.0000 	   40.2479 
    0.8316 	   80.1920 	    2.0000 	   42.0000 	   40.2869 
    0.7248 	   80.2680 	    2.0000 	   42.0000 	   40.3249 
    0.7401 	   80.3380 	    2.0000 	   42.0000 	   40.3599 
    0.8164 	   80.4060 	    2.0000 	   42.0000 	   40.3939 
    0.7553 	   80.4820 	    2.0000 	   42.0000 	   40.4319 
    0.8469 	   80.5480 	    2.0000 	   42.0000 	   40.4639 
    0.7553 	   80.6100 	    2.0000 	   42.0000 	   40.4959 
    0.8774 	   80.6740 	    2.0000 	   42.0000 	   40.5280 
    0.8164 	   80.7360 	    2.0000 	   42.0000 	   40.5590 
    0.7248 	   80.7980 	    2.0000 	   42.0000 	   40.5900 
    0.7858 	   80.8600 	    2.0000 	   42.0000 	   40.6210 
    0.8621 	   80.9360 	    2.0000 	   42.0000 	   40.6590 
    0.8164 	   81.0120 	    2.0000 	   42.0000 	   40.6970 
    0.7858 	   81.0820 	    2.0000 	   42.0000 	   40.7320 
    0.8164 	   81.1560 	    2.0000 	   42.0000 	   40.7690 
    0.6638 	   81.2300 	    2.0000 	   42.0000 	   40.8060 
    0.8774 	   81.3020 	    2.0000 	   42.0000 	   40.8420 
    0.7553 	   81.3740 	    2.0000 	   42.0000 	   40.8780 
    0.7553 	   81.4480 	    2.0000 	   42.0000 	   40.9150 
    0.7706 	   81.5200 	    2.0000 	   42.0000 	   40.9510 
    0.9079 	   81.5960 	    2.0000 	   42.0000 	   40.9890 
    0.7553 	   81.6660 	    2.0000 	   42.0000 	   41.0240 
    0.7858 	   81.7380 	    2.0000 	   42.0000 	   41.0600 
    0.9232 	   81.8120 	    2.0000 	   42.0000 	   41.0970 
    0.7401 	   81.8860 	    2.0000 	   42.0000 	   41.1340 
    0.6790 	   81.9580 	    2.0000 	   42.0000 	   41.1700 
    0.7248 	   82.0300 	    2.0000 	   42.0000 	   41.2060 
    0.8927 	   82.1040 	    2.0000 	   42.0000 	   41.2430 
    0.7706 	   82.1840 	    2.0000 	   42.0000 	   41.2830 
    0.8316 	   82.2580 	    2.0000 	   42.0000 	   41.3200 
    0.7553 	   82.3280 	    2.0000 	   42.0000 	   41.3550 
    0.7858 	   82.3960 	    2.0000 	   42.0000 	   41.3890 
    0.8621 	   82.4680 	    2.0000 	   42.0000 	   41.4250 
    0.8164 	   82.5400 	    2.0000 	   42.0000 	   41.4610 
    0.8164 	   82.6060 	    2.0000 	   42.0000 	   41.4940 
    0.7858 	   82.6720 	    2.0000 	   42.0000 	   41.5270 
    0.6485 	   82.7400 	    2.0000 	   42.0000 	   41.5610 
    0.8621 	   82.8020 	    2.0000 	   42.0000 	   41.5920 
    0.7706 	   82.8660 	    2.0000 	   42.0000 	   41.6240 
    0.8164 	   82.9340 	    2.0000 	   42.0000 	   41.6580 
    0.7553 	   83.0080 	    2.0000 	   42.0000 	   41.6950 
    0.8316 	   83.0800 	    2.0000 	   42.0000 	   41.7310 
    0.7553 	   83.1500 	    2.0000 	   42.0000 	   41.7660 
    0.7553 	   83.2260 	    2.0000 	   42.0000 	   41.8040 
    0.7553 	   83.3000 	    2.0000 	   42.0000 	   41.8410 
    0.8774 	   83.3740 	    2.0000 	   42.0000 	   41.8780 
    0.7401 	   83.4480 	    2.0000 	   42.0000 	   41.9150 
    0.8164 	   83.5260 	    2.0000 	   42.0000 	   41.9540 
    0.8316 	   83.5980 	    2.0000 	   42.0000 	   41.9900 
    0.7858 	   83.6680 	    2.0000 	   42.0000 	   42.0250 
    0.8011 	   83.7400 	    2.0000 	   42.0000 	   42.0610 
    0.7095 	   83.8140 	    2.0000 	   42.0000 	   42.0980 
    0.6332 	   83.8900 	    2.0000 	   42.0000 	   42.1360 
    0.8316 	   83.9640 	    2.0000 	   42.0000 	   42.1730 
    0.7553 	   84.0380 	    2.0000 	   42.0000 	   42.2100 
    0.7706 	   84.1120 	    2.0000 	   42.0000 	   42.2471 
    0.8316 	   84.1840 	    2.0000 	   42.0000 	   42.2831 
    0.9995 	   84.2600 	    2.0000 	   42.0000 	   42.3211 
    0.6790 	   84.3260 	    2.0000 	   42.0000 	   42.3541 
    0.9079 	   84.3980 	    2.0000 	   42.0000 	   42.3901 
    0.6943 	   84.4720 	    2.0000 	   42.0000 	   42.4271 
    0.9384 	   84.5420 	    2.0000 	   42.0000 	   42.4621 
    0.6943 	   84.6080 	    2.0000 	   42.0000 	   42.4951 
    0.8774 	   84.6780 	    2.0000 	   42.0000 	   42.5301 
    0.6943 	   84.7480 	    2.0000 	   42.0000 	   42.5651 
    0.8316 	   84.8120 	    2.0000 	   42.0000 	   42.5971 
    0.8316 	   84.8760 	    2.0000 	   42.0000 	   42.6291 
    0.7706 	   84.9400 	    2.0000 	   42.0000 	   42.6611 
    0.8774 	   85.0140 	    2.0000 	   42.0000 	   42.6981 
    0.8469 	   85.0820 	    2.0000 	   42.0000 	   42.7321 
    0.8927 	   85.1480 	    2.0000 	   42.0000 	   42.7651 
    0.7706 	   85.2180 	    2.0000 	   42.0000 	   42.8001 
    0.6790 	   85.2920 	    2.0000 	   42.0000 	   42.8371 
    0.9079 	   85.3640 	    2.0000 	   42.0000 	   42.8731 
    0.6485 	   85.4360 	    2.0000 	   42.0000 	   42.9091 
    0.8011 	   85.5060 	    2.0000 	   42.0000 	   42.9441 
    0.7553 	   85.5780 	    2.0000 	   42.0000 	   42.9801 
    0.8469 	   85.6520 	    2.0000 	   42.0000 	   43.0171 
    0.6790 	   85.7200 	    2.0000 	   42.0000 	   43.0511 
    0.7553 	   85.7940 	    2.0000 	   42.0000 	   43.0881 
    0.6943 	   85.8660 	    2.0000 	   42.0000 	   43.1241 
    0.6943 	   85.9420 	    2.0000 	   42.0000 	   43.1621 
    0.7401 	   86.0160 	    2.0000 	   42.0000 	   43.1991 
    0.8164 	   86.0880 	    2.0000 	   42.0000 	   43.2351 
    0.7401 	   86.1720 	    2.0000 	   42.0000 	   43.2771 
    0.6332 	   86.2480 	    2.0000 	   42.0000 	   43.3151 
    0.8621 	   86.3200 	    2.0000 	   42.0000 	   43.3511 
    0.8164 	   86.3880 	    2.0000 	   42.0000 	   43.3851 
    0.7553 	   86.4580 	    2.0000 	   42.0000 	   43.4201 
    0.8774 	   86.5280 	    2.0000 	   42.0000 	   43.4551 
    0.6943 	   86.6060 	    2.0000 	   42.0000 	   43.4941 
    0.5722 	   86.6760 	    2.0000 	   42.0000 	   43.5291 
    0.6485 	   86.7480 	    2.0000 	   42.0000 	   43.5651 
    0.7248 	   86.8140 	    2.0000 	   42.0000 	   43.5981 
    0.8621 	   86.8840 	    2.0000 	   42.0000 	   43.6331 
    0.7401 	   86.9560 	    2.0000 	   42.0000 	   43.6691 
    0.6485 	   87.0340 	    2.0000 	   42.0000 	   43.7081 
    0.6638 	   87.1100 	    2.0000 	   42.0000 	   43.7461 
    0.5875 	   87.1840 	    2.0000 	   42.0000 	   43.7831 
    0.6790 	   87.2560 	    2.0000 	   42.0000 	   43.8191 
    0.3738 	   87.3320 	    2.0000 	   42.0000 	   43.8571 
    0.8164 	   87.4060 	    2.0000 	   42.0000 	   43.8941 
    0.6180 	   87.4820 	    2.0000 	   42.0000 	   43.9321 
    0.6638 	   87.5540 	    2.0000 	   42.0000 	   43.9681 
    0.7858 	   87.6280 	    2.0000 	   42.0000 	   44.0051 
    0.6638 	   87.7020 	    2.0000 	   42.0000 	   44.0422 
    0.5570 	   87.7800 	    2.0000 	   42.0000 	   44.0812 
    0.8164 	   87.8560 	    2.0000 	   42.0000 	   44.1192 
    0.6332 	   87.9300 	    2.0000 	   42.0000 	   44.1562 
    0.5875 	   88.0040 	    2.0000 	   42.0000 	   44.1932 
    0.6332 	   88.0800 	    2.0000 	   42.0000 	   44.2312 
    0.6485 	   88.1620 	    2.0000 	   42.0000 	   44.2722 
    0.6332 	   88.2380 	    2.0000 	   42.0000 	   44.3102 
    0.5722 	   88.3140 	    2.0000 	   42.0000 	   44.3482 
    0.6180 	   88.3840 	    2.0000 	   42.0000 	   44.3832 
    0.6790 	   88.4520 	    2.0000 	   42.0000 	   44.4172 
    0.5722 	   88.5200 	    2.0000 	   42.0000 	   44.4512 
    0.6638 	   88.5880 	    2.0000 	   42.0000 	   44.4852 
    0.6790 	   88.6540 	    2.0000 	   42.0000 	   44.5182 
    0.6180 	   88.7260 	    2.0000 	   42.0000 	   44.5542 
    0.6790 	   88.7900 	    2.0000 	   42.0000 	   44.5862 
    0.8011 	   88.8540 	    2.0000 	   42.0000 	   44.6182 
    0.7095 	   88.9320 	    2.0000 	   42.0000 	   44.6572 
    0.3281 	   89.0020 	    2.0000 	   42.0000 	   44.6922 
    0.6790 	   89.0660 	    2.0000 	   42.0000 	   44.7242 
    0.4044 	   89.1320 	    2.0000 	   42.0000 	   44.7572 
    0.7553 	   89.1960 	    2.0000 	   42.0000 	   44.7892 
    0.7553 	   89.2620 	    2.0000 	   42.0000 	   44.8222 
    0.6638 	   89.3280 	    2.0000 	   42.0000 	   44.8552 
    0.7401 	   89.3920 	    2.0000 	   42.0000 	   44.8872 
    0.6332 	   89.4580 	    2.0000 	   42.0000 	   44.9202 
    0.7248 	   89.5240 	    2.0000 	   42.0000 	   44.9532 
    0.5112 	   89.5900 	    2.0000 	   42.0000 	   44.9862 
    0.7095 	   89.6540 	    2.0000 	   42.0000 	   45.0182 
    0.6638 	   89.7180 	    2.0000 	   42.0000 	   45.0502 
    0.3738 	   89.7820 	    2.0000 	   42.0000 	   45.0822 
    0.6027 	   89.8460 	    2.0000 	   42.0000 	   45.1142 
    0.7401 	   89.9120 	    2.0000 	   42.0000 	   45.1472 
    0.6790 	   89.9760 	    2.0000 	   42.0000 	   45.1792 
    0.6943 	   90.0420 	    2.0000 	   42.0000 	   45.2122 
    0.6638 	   90.1060 	    2.0000 	   42.0000 	   45.2442 
    0.6943 	   90.1780 	    2.0000 	   42.0000 	   45.2802 
    0.7553 	   90.2420 	    2.0000 	   42.0000 	   45.3122 
    0.7553 	   90.3120 	    2.0000 	   42.0000 	   45.3472 
    0.6485 	   90.3820 	    2.0000 	   42.0000 	   45.3822 
    0.7248 	   90.4500 	    2.0000 	   42.0000 	   45.4162 
    0.5875 	   90.5200 	    2.0000 	   42.0000 	   45.4512 
    0.5875 	   90.5940 	    2.0000 	   42.0000 	   45.4882 
    0.5722 	   90.6660 	    2.0000 	   42.0000 	   45.5242 
    0.5264 	   90.7300 	    2.0000 	   42.0000 	   45.5562 
    0.7248 	   90.7920 	    2.0000 	   42.0000 	   45.5872 
    0.5875 	   90.8540 	    2.0000 	   42.0000 	   45.6182 
    0.6943 	   90.9180 	    2.0000 	   42.0000 	   45.6502 
    0.4196 	   90.9800 	    2.0000 	   42.0000 	   45.6812 
    0.6638 	   91.0480 	    2.0000 	   42.0000 	   45.7152 
    0.7553 	   91.1160 	    2.0000 	   42.0000 	   45.7492 
    0.4349 	   91.1920 	    2.0000 	   42.0000 	   45.7873 
    0.6943 	   91.2680 	    2.0000 	   42.0000 	   45.8253 
    0.6180 	   91.3420 	    2.0000 	   42.0000 	   45.8623 
    0.6027 	   91.4180 	    2.0000 	   42.0000 	   45.9003 
    0.3738 	   91.4920 	    2.0000 	   42.0000 	   45.9373 
    0.5417 	   91.5620 	    2.0000 	   42.0000 	   45.9723 
    0.5417 	   91.6280 	    2.0000 	   42.0000 	   46.0053 
    0.6485 	   91.7000 	    2.0000 	   42.0000 	   46.0413 
    0.7401 	   91.7760 	    2.0000 	   42.0000 	   46.0793 
    0.5875 	   91.8520 	    2.0000 	   42.0000 	   46.1173 
    0.6180 	   91.9260 	    2.0000 	   42.0000 	   46.1543 
    0.6180 	   92.0000 	    2.0000 	   42.0000 	   46.1913 
    0.2976 	   92.0780 	    2.0000 	   42.0000 	   46.2303 
    0.7248 	   92.1600 	    2.0000 	   42.0000 	   46.2713 
    0.7248 	   92.2380 	    2.0000 	   42.0000 	   46.3103 
    0.7858 	   92.3040 	    2.0000 	   42.0000 	   46.3433 
    0.5722 	   92.3700 	    2.0000 	   42.0000 	   46.3763 
    0.6180 	   92.4420 	    2.0000 	   42.0000 	   46.4123 
    0.7248 	   92.5120 	    2.0000 	   42.0000 	   46.4473 
    0.6638 	   92.5860 	    2.0000 	   42.0000 	   46.4843 
    0.6638 	   92.6580 	    2.0000 	   42.0000 	   46.5203 
    0.7401 	   92.7260 	    2.0000 	   42.0000 	   46.5543 
    0.6638 	   92.7900 	    2.0000 	   42.0000 	   46.5863 
    0.6027 	   92.8520 	    2.0000 	   42.0000 	   46.6173 
    0.5875 	   92.9320 	    2.0000 	   42.0000 	   46.6573 
    0.6180 	   93.0000 	    2.0000 	   42.0000 	   46.6913 
    0.6790 	   93.0660 	    2.0000 	   42.0000 	   46.7243 
    0.3433 	   93.1320 	    2.0000 	   42.0000 	   46.7573 
    0.6180 	   93.2000 	    2.0000 	   42.0000 	   46.7913 
    0.6485 	   93.2660 	    2.0000 	   42.0000 	   46.8243 
    0.6332 	   93.3340 	    2.0000 	   42.0000 	   46.8583 
    0.3128 	   93.4000 	    2.0000 	   42.0000 	   46.8913 
    0.6485 	   93.4720 	    2.0000 	   42.0000 	   46.9273 
    0.3433 	   93.5460 	    2.0000 	   42.0000 	   46.9643 
    0.6332 	   93.6220 	    2.0000 	   42.0000 	   47.0023 
    0.6485 	   93.6960 	    2.0000 	   42.0000 	   47.0393 
    0.5417 	   93.7720 	    2.0000 	   42.0000 	   47.0773 
    0.6790 	   93.8460 	    2.0000 	   42.0000 	   47.1143 
    0.6790 	   93.9260 	    2.0000 	   42.0000 	   47.1543 
    0.5722 	   94.0020 	    2.0000 	   42.0000 	   47.1923 
    0.6485 	   94.0780 	    2.0000 	   42.0000 	   47.2303 
    0.5722 	   94.1640 	    2.0000 	   42.0000 	   47.2733 
    0.4807 	   94.2420 	    2.0000 	   42.0000 	   47.3123 
    0.5875 	   94.3160 	    2.0000 	   42.0000 	   47.3493 
    0.5570 	   94.3840 	    2.0000 	   42.0000 	   47.3833 
    0.6485 	   94.4520 	    2.0000 	   42.0000 	   47.4173 
    0.6485 	   94.5260 	    2.0000 	   42.0000 	   47.4543 
    0.5570 	   94.6020 	    2.0000 	   42.0000 	   47.4923 
    0.5722 	   94.6760 	    2.0000 	   42.0000 	   47.5294 
    0.5112 	   94.7440 	    2.0000 	   42.0000 	   47.5634 
    0.5875 	   94.8100 	    2.0000 	   42.0000 	   47.5964 
    0.6027 	   94.8760 	    2.0000 	   42.0000 	   47.6294 
    0.6027 	   94.9480 	    2.0000 	   42.0000 	   47.6654 
    0.5417 	   95.0260 	    2.0000 	   42.0000 	   47.7044 
    0.5417 	   95.1020 	    2.0000 	   42.0000 	   47.7424 
    0.6485 	   95.1800 	    2.0000 	   42.0000 	   47.7814 
    0.6180 	   95.2560 	    2.0000 	   42.0000 	   47.8194 
    0.5112 	   95.3320 	    2.0000 	   42.0000 	   47.8574 
    0.7401 	   95.4140 	    2.0000 	   42.0000 	   47.8984 
    0.6027 	   95.4940 	    2.0000 	   42.0000 	   47.9384 
    0.6485 	   95.5720 	    2.0000 	   42.0000 	   47.9774 
    0.6332 	   95.6480 	    2.0000 	   42.0000 	   48.0154 
    0.5112 	   95.7260 	    2.0000 	   42.0000 	   48.0544 
    0.5417 	   95.8040 	    2.0000 	   42.0000 	   48.0934 
    0.6485 	   95.8780 	    2.0000 	   42.0000 	   48.1304 
    0.5570 	   95.9560 	    2.0000 	   42.0000 	   48.1694 
    0.6638 	   96.0280 	    2.0000 	   42.0000 	   48.2054 
    0.6943 	   96.1020 	    2.0000 	   42.0000 	   48.2424 
    0.6180 	   96.1800 	    2.0000 	   42.0000 	   48.2814 
    0.5570 	   96.2540 	    2.0000 	   42.0000 	   48.3184 
    0.6332 	   96.3260 	    2.0000 	   42.0000 	   48.3544 
    0.4807 	   96.3980 	    2.0000 	   42.0000 	   48.3904 
    0.4654 	   96.4700 	    2.0000 	   42.0000 	   48.4264 
    0.7401 	   96.5420 	    2.0000 	   42.0000 	   48.4624 
    0.4959 	   96.6140 	    2.0000 	   42.0000 	   48.4984 
    0.6027 	   96.6860 	    2.0000 	   42.0000 	   48.5344 
    0.6485 	   96.7560 	    2.0000 	   42.0000 	   48.5694 
    0.6332 	   96.8220 	    2.0000 	   42.0000 	   48.6024 
    0.7553 	   96.8920 	    2.0000 	   42.0000 	   48.6374 
    0.6638 	   96.9680 	    2.0000 	   42.0000 	   48.6754 
    0.4196 	   97.0400 	    2.0000 	   42.0000 	   48.7114 
    0.4501 	   97.1160 	    2.0000 	   42.0000 	   48.7494 
    0.7095 	   97.1920 	    2.0000 	   42.0000 	   48.7874 
    0.5264 	   97.2700 	    2.0000 	   42.0000 	   48.8264 
    0.6790 	   97.3420 	    2.0000 	   42.0000 	   48.8624 
    0.5570 	   97.4180 	    2.0000 	   42.0000 	   48.9004 
    0.5112 	   97.4940 	    2.0000 	   42.0000 	   48.9384 
    0.5722 	   97.5680 	    2.0000 	   42.0000 	   48.9754 
    0.4959 	   97.6400 	    2.0000 	   42.0000 	   49.0114 
    0.5875 	   97.7160 	    2.0000 	   42.0000 	   49.0494 
    0.6180 	   97.7900 	    2.0000 	   42.0000 	   49.0864 
    0.5417 	   97.8680 	    2.0000 	   42.0000 	   49.1254 
    0.6180 	   97.9440 	    2.0000 	   42.0000 	   49.1634 
    0.4959 	   98.0240 	    2.0000 	   42.0000 	   49.2034 
    0.6027 	   98.1020 	    2.0000 	   42.0000 	   49.2425 
    0.7553 	   98.1800 	    2.0000 	   42.0000 	   49.2815 
    0.7401 	   98.2580 	    2.0000 	   42.0000 	   49.3205 
    0.4501 	   98.3320 	    2.0000 	   42.0000 	   49.3575 
    0.5417 	   98.4060 	    2.0000 	   42.0000 	   49.3945 
    0.6943 	   98.4780 	    2.0000 	   42.0000 	   49.4305 
    0.5722 	   98.5520 	    2.0000 	   42.0000 	   49.4675 
    0.4654 	   98.6280 	    2.0000 	   42.0000 	   49.5055 
    0.5264 	   98.7020 	    2.0000 	   42.0000 	   49.5425 
    0.4044 	   98.7740 	    2.0000 	   42.0000 	   49.5785 
    0.5875 	   98.8440 	    2.0000 	   42.0000 	   49.6135 
    0.4959 	   98.9120 	    2.0000 	   42.0000 	   49.6475 
    0.6638 	   98.9780 	    2.0000 	   42.0000 	   49.6805 
    0.6485 	   99.0520 	    2.0000 	   42.0000 	   49.7175 
    0.5264 	   99.1260 	    2.0000 	   42.0000 	   49.7545 
    0.4501 	   99.2040 	    2.0000 	   42.0000 	   49.7935 
    0.4044 	   99.2780 	    2.0000 	   42.0000 	   49.8305 
    0.5112 	   99.3560 	    2.0000 	   42.0000 	   49.8695 
    0.5264 	   99.4280 	    2.0000 	   42.0000 	   49.9055 
    0.5722 	   99.5020 	    2.0000 	   42.0000 	   49.9425 
    0.4959 	   99.5760 	    2.0000 	   42.0000 	   49.9785 
    0.5570 	   99.6500 	    2.0000 	   42.0000 	   50.0165 
    0.3738 	   99.7240 	    2.0000 	   42.0000 	   50.0535 
    0.6638 	   99.7980 	    2.0000 	   42.0000 	   50.0905 
    0.5875 	   99.8720 	    2.0000 	   42.0000 	   50.1275 
    0.5570 	   99.9480 	    2.0000 	   42.0000 	   50.1655 
    0.3281 	  100.0260 	    2.0000 	   42.0000 	   50.2045 
    0.4196 	  100.0980 	    2.0000 	   42.0000 	   50.2405 
    0.5570 	  100.1800 	    2.0000 	   42.0000 	   50.2815 
    0.4807 	  100.2540 	    2.0000 	   42.0000 	   50.3185 
    0.5570 	  100.3300 	    2.0000 	   42.0000 	   50.3565 
    0.3281 	  100.4020 	    2.0000 	   42.0000 	   50.3925 
    0.5722 	  100.4800 	    2.0000 	   42.0000 	   50.4315 
    0.5722 	  100.5600 	    2.0000 	   42.0000 	   50.4715 
    0.5875 	  100.6340 	    2.0000 	   42.0000 	   50.5085 
    0.4807 	  100.7040 	    2.0000 	   42.0000 	   50.5435 
    0.5875 	  100.7740 	    2.0000 	   42.0000 	   50.5785 
    0.3738 	  100.8480 	    2.0000 	   42.0000 	   50.6155 
    0.7095 	  100.9240 	    2.0000 	   42.0000 	   50.6535 
    0.4044 	  100.9980 	    2.0000 	   42.0000 	   50.6905 
    0.6943 	  101.0780 	    2.0000 	   42.0000 	   50.7305 
    0.4654 	  101.1560 	    2.0000 	   42.0000 	   50.7695 
    0.4044 	  101.2300 	    2.0000 	   42.0000 	   50.8065 
    0.6180 	  101.3060 	    2.0000 	   42.0000 	   50.8445 
    0.5570 	  101.3760 	    2.0000 	   42.0000 	   50.8795 
    0.5417 	  101.4540 	    2.0000 	   42.0000 	   50.9185 
    0.5264 	  101.5320 	    2.0000 	   42.0000 	   50.9575 
    0.4807 	  101.6100 	    2.0000 	   42.0000 	   50.9966 
    0.2823 	  101.6820 	    2.0000 	   42.0000 	   51.0326 
    0.5570 	  101.7600 	    2.0000 	   42.0000 	   51.0716 
    0.5722 	  101.8360 	    2.0000 	   42.0000 	   51.1096 
    0.5112 	  101.9100 	    2.0000 	   42.0000 	   51.1466 
    0.5112 	  101.9880 	    2.0000 	   42.0000 	   51.1856 
    0.5570 	  102.0660 	    2.0000 	   42.0000 	   51.2246 
    0.6332 	  102.1420 	    2.0000 	   42.0000 	   51.2626 
    0.3128 	  102.2200 	    2.0000 	   42.0000 	   51.3016 
    0.5112 	  102.2980 	    2.0000 	   42.0000 	   51.3406 
    0.5264 	  102.3720 	    2.0000 	   42.0000 	   51.3776 
    0.5722 	  102.4420 	    2.0000 	   42.0000 	   51.4126 
    0.5264 	  102.5220 	    2.0000 	   42.0000 	   51.4526 
    0.4501 	  102.5940 	    2.0000 	   42.0000 	   51.4886 
    0.1450 	  102.6780 	    2.0000 	   42.0000 	   51.5306 
    0.5264 	  102.7540 	    2.0000 	   42.0000 	   51.5686 
    0.2976 	  102.8220 	    2.0000 	   42.0000 	   51.6026 
    0.4349 	  102.8980 	    2.0000 	   42.0000 	   51.6406 
    0.3128 	  102.9660 	    2.0000 	   42.0000 	   51.6746 
    0.4807 	  103.0380 	    2.0000 	   42.0000 	   51.7106 
    0.4349 	  103.1180 	    2.0000 	   42.0000 	   51.7506 
    0.4807 	  103.1980 	    2.0000 	   42.0000 	   51.7906 
    0.4044 	  103.2760 	    2.0000 	   42.0000 	   51.8296 
    0.6027 	  103.3540 	    2.0000 	   42.0000 	   51.8686 
    0.4807 	  103.4300 	    2.0000 	   42.0000 	   51.9066 
    0.4196 	  103.5080 	    2.0000 	   42.0000 	   51.9456 
    0.6180 	  103.5880 	    2.0000 	   42.0000 	   51.9856 
    0.6180 	  103.6660 	    2.0000 	   42.0000 	   52.0246 
    0.5875 	  103.7440 	    2.0000 	   42.0000 	   52.0636 
    0.4807 	  103.8160 	    2.0000 	   42.0000 	   52.0996 
    0.5264 	  103.8980 	    2.0000 	   42.0000 	   52.1406 
    0.2365 	  103.9740 	    2.0000 	   42.0000 	   52.1786 
    0.4501 	  104.0520 	    2.0000 	   42.0000 	   52.2176 
    0.4959 	  104.1260 	    2.0000 	   42.0000 	   52.2546 
    0.5112 	  104.2000 	    2.0000 	   42.0000 	   52.2916 
    0.5112 	  104.2720 	    2.0000 	   42.0000 	   52.3276 
    0.5570 	  104.3440 	    2.0000 	   42.0000 	   52.3636 
    0.5875 	  104.4160 	    2.0000 	   42.0000 	   52.3996 
    0.5417 	  104.4860 	    2.0000 	   42.0000 	   52.4346 
    0.4349 	  104.5560 	    2.0000 	   42.0000 	   52.4696 
    0.4654 	  104.6300 	    2.0000 	   42.0000 	   52.5066 
    0.4349 	  104.7060 	    2.0000 	   42.0000 	   52.5446 
    0.3738 	  104.7760 	    2.0000 	   42.0000 	   52.5796 
    0.3281 	  104.8500 	    2.0000 	   42.0000 	   52.6166 
    0.3891 	  104.9340 	    2.0000 	   42.0000 	   52.6586 
    0.4349 	  105.0020 	    2.0000 	   42.0000 	   52.6926 
    0.4349 	  105.0840 	    2.0000 	   42.0000 	   52.7327 
    0.5570 	  105.1660 	    2.0000 	   42.0000 	   52.7737 
    0.5417 	  105.2420 	    2.0000 	   42.0000 	   52.8117 
    0.4349 	  105.3220 	    2.0000 	   42.0000 	   52.8517 
    0.6180 	  105.3960 	    2.0000 	   42.0000 	   52.8887 
    0.3891 	  105.4720 	    2.0000 	   42.0000 	   52.9267 
    0.5570 	  105.5500 	    2.0000 	   42.0000 	   52.9657 
    0.4959 	  105.6300 	    2.0000 	   42.0000 	   53.0057 
    0.5417 	  105.7080 	    2.0000 	   42.0000 	   53.0447 
    0.5722 	  105.7860 	    2.0000 	   42.0000 	   53.0837 
    0.4654 	  105.8680 	    2.0000 	   42.0000 	   53.1247 
    0.4501 	  105.9460 	    2.0000 	   42.0000 	   53.1637 
    0.4196 	  106.0220 	    2.0000 	   42.0000 	   53.2017 
    0.4501 	  106.0980 	    2.0000 	   42.0000 	   53.2397 
    0.4959 	  106.1740 	    2.0000 	   42.0000 	   53.2777 
    0.4044 	  106.2460 	    2.0000 	   42.0000 	   53.3137 
    0.4044 	  106.3280 	    2.0000 	   42.0000 	   53.3547 
    0.3586 	  106.4000 	    2.0000 	   42.0000 	   53.3907 
    0.4349 	  106.4720 	    2.0000 	   42.0000 	   53.4267 
    0.4959 	  106.5460 	    2.0000 	   42.0000 	   53.4637 
    0.5570 	  106.6160 	    2.0000 	   42.0000 	   53.4987 
    0.4959 	  106.6920 	    2.0000 	   42.0000 	   53.5367 
    0.5112 	  106.7620 	    2.0000 	   42.0000 	   53.5717 
    0.5417 	  106.8280 	    2.0000 	   42.0000 	   53.6047 
    0.5264 	  106.8940 	    2.0000 	   42.0000 	   53.6377 
    0.4349 	  106.9620 	    2.0000 	   42.0000 	   53.6717 
    0.6485 	  107.0400 	    2.0000 	   42.0000 	   53.7107 
    0.3128 	  107.1160 	    2.0000 	   42.0000 	   53.7487 
    0.4807 	  107.1900 	    2.0000 	   42.0000 	   53.7857 
    0.3891 	  107.2640 	    2.0000 	   42.0000 	   53.8227 
    0.4196 	  107.3400 	    2.0000 	   42.0000 	   53.8607 
    0.3738 	  107.4220 	    2.0000 	   42.0000 	   53.9017 
    0.4959 	  107.4960 	    2.0000 	   42.0000 	   53.9387 
    0.5112 	  107.5640 	    2.0000 	   42.0000 	   53.9727 
    0.5417 	  107.6320 	    2.0000 	   42.0000 	   54.0067 
    0.4196 	  107.7080 	    2.0000 	   42.0000 	   54.0447 
    0.4044 	  107.7840 	    2.0000 	   42.0000 	   54.0827 
    0.3281 	  107.8600 	    2.0000 	   42.0000 	   54.1207 
    0.4196 	  107.9340 	    2.0000 	   42.0000 	   54.1577 
    0.5417 	  108.0080 	    2.0000 	   42.0000 	   54.1947 
    0.4196 	  108.0860 	    2.0000 	   42.0000 	   54.2327 
    0.4654 	  108.1620 	    2.0000 	   42.0000 	   54.2717 
    0.4807 	  108.2380 	    2.0000 	   42.0000 	   54.3097 
    0.4959 	  108.3100 	    2.0000 	   42.0000 	   54.3457 
    0.5112 	  108.3860 	    2.0000 	   42.0000 	   54.3837 
    0.5112 	  108.4640 	    2.0000 	   42.0000 	   54.4227 
    0.6180 	  108.5440 	    2.0000 	   42.0000 	   54.4627 
    0.0534 	  108.6180 	    2.0000 	   42.0000 	   54.4998 
    0.4196 	  108.6940 	    2.0000 	   42.0000 	   54.5378 
    0.5264 	  108.7720 	    2.0000 	   42.0000 	   54.5768 
    0.4807 	  108.8460 	    2.0000 	   42.0000 	   54.6138 
    0.3128 	  108.9360 	    2.0000 	   42.0000 	   54.6588 
    0.4501 	  109.0100 	    2.0000 	   42.0000 	   54.6958 
    0.4349 	  109.0860 	    2.0000 	   42.0000 	   54.7338 
    0.3586 	  109.1600 	    2.0000 	   42.0000 	   54.7708 
    0.4196 	  109.2360 	    2.0000 	   42.0000 	   54.8088 
    0.2213 	  109.3120 	    2.0000 	   42.0000 	   54.8468 
    0.4044 	  109.3840 	    2.0000 	   42.0000 	   54.8828 
    0.4349 	  109.4600 	    2.0000 	   42.0000 	   54.9208 
    0.3891 	  109.5380 	    2.0000 	   42.0000 	   54.9598 
    0.5264 	  109.6160 	    2.0000 	   42.0000 	   54.9988 
    0.4501 	  109.6940 	    2.0000 	   42.0000 	   55.0378 
    0.4654 	  109.7700 	    2.0000 	   42.0000 	   55.0758 
    0.3738 	  109.8500 	    2.0000 	   42.0000 	   55.1158 
    0.5722 	  109.9240 	    2.0000 	   42.0000 	   55.1528 
    0.3738 	  110.0060 	    2.0000 	   42.0000 	   55.1938 
    0.4196 	  110.0860 	    2.0000 	   42.0000 	   55.2338 
    0.3586 	  110.1720 	    2.0000 	   42.0000 	   55.2768 
    0.4196 	  110.2480 	    2.0000 	   42.0000 	   55.3148 
    0.4044 	  110.3240 	    2.0000 	   42.0000 	   55.3528 
    0.6485 	  110.3940 	    2.0000 	   42.0000 	   55.3878 
    0.4044 	  110.4660 	    2.0000 	   42.0000 	   55.4238 
    0.4196 	  110.5460 	    2.0000 	   42.0000 	   55.4638 
    0.5264 	  110.6260 	    2.0000 	   42.0000 	   55.5038 
    0.3433 	  110.7020 	    2.0000 	   42.0000 	   55.5418 
    0.4196 	  110.7740 	    2.0000 	   42.0000 	   55.5778 
    0.4959 	  110.8420 	    2.0000 	   42.0000 	   55.6118 
    0.3891 	  110.9120 	    2.0000 	   42.0000 	   55.6468 
    0.3433 	  110.9820 	    2.0000 	   42.0000 	   55.6818 
    0.4196 	  111.0720 	    2.0000 	   42.0000 	   55.7268 
    0.4501 	  111.1500 	    2.0000 	   42.0000 	   55.7658 
    0.4349 	  111.2260 	    2.0000 	   42.0000 	   55.8038 
    0.4196 	  111.3040 	    2.0000 	   42.0000 	   55.8428 
    0.5570 	  111.3800 	    2.0000 	   42.0000 	   55.8808 
    0.4501 	  111.4580 	    2.0000 	   42.0000 	   55.9198 
    0.3738 	  111.5360 	    2.0000 	   42.0000 	   55.9588 
    0.4349 	  111.6180 	    2.0000 	   42.0000 	   55.9998 
    0.3891 	  111.6960 	    2.0000 	   42.0000 	   56.0388 
    0.3281 	  111.7780 	    2.0000 	   42.0000 	   56.0798 
    0.4196 	  111.8540 	    2.0000 	   42.0000 	   56.1178 
    0.3128 	  111.9300 	    2.0000 	   42.0000 	   56.1558 
    0.4349 	  112.0060 	    2.0000 	   42.0000 	   56.1938 
    0.4044 	  112.0860 	    2.0000 	   42.0000 	   56.2338 
    0.5570 	  112.1640 	    2.0000 	   42.0000 	   56.2729 
    0.3738 	  112.2420 	    2.0000 	   42.0000 	   56.3119 
    0.3128 	  112.3220 	    2.0000 	   42.0000 	   56.3519 
    0.1450 	  112.3920 	    2.0000 	   42.0000 	   56.3869 
    0.2365 	  112.4640 	    2.0000 	   42.0000 	   56.4229 
    0.4349 	  112.5360 	    2.0000 	   42.0000 	   56.4589 
    0.3738 	  112.6160 	    2.0000 	   42.0000 	   56.4989 
    0.5112 	  112.7020 	    2.0000 	   42.0000 	   56.5419 
    0.2976 	  112.7740 	    2.0000 	   42.0000 	   56.5779 
    0.3433 	  112.8440 	    2.0000 	   42.0000 	   56.6129 
    0.1602 	  112.9360 	    2.0000 	   42.0000 	   56.6589 
    0.3891 	  113.0200 	    2.0000 	   42.0000 	   56.7009 
    0.5417 	  113.1000 	    2.0000 	   42.0000 	   56.7409 
    0.3128 	  113.1740 	    2.0000 	   42.0000 	   56.7779 
    0.4044 	  113.2500 	    2.0000 	   42.0000 	   56.8159 
    0.3433 	  113.3280 	    2.0000 	   42.0000 	   56.8549 
    0.4196 	  113.4060 	    2.0000 	   42.0000 	   56.8939 
    0.3891 	  113.4840 	    2.0000 	   42.0000 	   56.9329 
    0.1755 	  113.5640 	    2.0000 	   42.0000 	   56.9729 
    0.4196 	  113.6460 	    2.0000 	   42.0000 	   57.0139 
    0.4807 	  113.7220 	    2.0000 	   42.0000 	   57.0519 
    0.4654 	  113.7980 	    2.0000 	   42.0000 	   57.0899 
    0.3738 	  113.8720 	    2.0000 	   42.0000 	   57.1269 
    0.4349 	  113.9500 	    2.0000 	   42.0000 	   57.1659 
    0.3281 	  114.0260 	    2.0000 	   42.0000 	   57.2039 
    0.3281 	  114.1060 	    2.0000 	   42.0000 	   57.2439 
    0.3128 	  114.1860 	    2.0000 	   42.0000 	   57.2839 
    0.3738 	  114.2620 	    2.0000 	   42.0000 	   57.3219 
    0.4501 	  114.3400 	    2.0000 	   42.0000 	   57.3609 
    0.4501 	  114.4160 	    2.0000 	   42.0000 	   57.3989 
    0.3586 	  114.4880 	    2.0000 	   42.0000 	   57.4349 
    0.3433 	  114.5620 	    2.0000 	   42.0000 	   57.4719 
    0.3433 	  114.6360 	    2.0000 	   42.0000 	   57.5089 
    0.3738 	  114.7120 	    2.0000 	   42.0000 	   57.5469 
    0.4501 	  114.7840 	    2.0000 	   42.0000 	   57.5829 
    0.4196 	  114.8540 	    2.0000 	   42.0000 	   57.6179 
    0.1144 	  114.9300 	    2.0000 	   42.0000 	   57.6559 
    0.4501 	  115.0080 	    2.0000 	   42.0000 	   57.6949 
    0.4959 	  115.0900 	    2.0000 	   42.0000 	   57.7359 
    0.3433 	  115.1840 	    2.0000 	   42.0000 	   57.7829 
    0.4654 	  115.2620 	    2.0000 	   42.0000 	   57.8219 
    0.3281 	  115.3440 	    2.0000 	   42.0000 	   57.8629 
    0.3738 	  115.4220 	    2.0000 	   42.0000 	   57.9019 
    0.4349 	  115.4960 	    2.0000 	   42.0000 	   57.9389 
    0.3128 	  115.5760 	    2.0000 	   42.0000 	   57.9790 
    0.4196 	  115.6560 	    2.0000 	   42.0000 	   58.0190 
    0.3586 	  115.7340 	    2.0000 	   42.0000 	   58.0580 
    0.3738 	  115.8120 	    2.0000 	   42.0000 	   58.0970 
    0.5264 	  115.8940 	    2.0000 	   42.0000 	   58.1380 
    0.4044 	  115.9720 	    2.0000 	   42.0000 	   58.1770 
    0.3433 	  116.0520 	    2.0000 	   42.0000 	   58.2170 
    0.2976 	  116.1300 	    2.0000 	   42.0000 	   58.2560 
    0.2213 	  116.2080 	    2.0000 	   42.0000 	   58.2950 
    0.3891 	  116.2880 	    2.0000 	   42.0000 	   58.3350 
    0.4196 	  116.3600 	    2.0000 	   42.0000 	   58.3710 
    0.3738 	  116.4340 	    2.0000 	   42.0000 	   58.4080 
    0.3433 	  116.5120 	    2.0000 	   42.0000 	   58.4470 
    0.5570 	  116.5960 	    2.0000 	   42.0000 	   58.4890 
    0.4501 	  116.6740 	    2.0000 	   42.0000 	   58.5280 
    0.4196 	  116.7500 	    2.0000 	   42.0000 	   58.5660 
    0.0839 	  116.8200 	    2.0000 	   42.0000 	   58.6010 
    0.2518 	  116.8960 	    2.0000 	   42.0000 	   58.6390 
    0.3738 	  116.9740 	    2.0000 	   42.0000 	   58.6780 
    0.3128 	  117.0500 	    2.0000 	   42.0000 	   58.7160 
    0.2823 	  117.1260 	    2.0000 	   42.0000 	   58.7540 
    0.3128 	  117.2000 	    2.0000 	   42.0000 	   58.7910 
    0.2670 	  117.2680 	    2.0000 	   42.0000 	   58.8250 
    0.2518 	  117.3420 	    2.0000 	   42.0000 	   58.8620 
    0.3433 	  117.4180 	    2.0000 	   42.0000 	   58.9000 
    0.4044 	  117.4880 	    2.0000 	   42.0000 	   58.9350 
    0.5112 	  117.5660 	    2.0000 	   42.0000 	   58.9740 
    0.3891 	  117.6460 	    2.0000 	   42.0000 	   59.0140 
    0.3433 	  117.7300 	    2.0000 	   42.0000 	   59.0560 
    0.2976 	  117.8080 	    2.0000 	   42.0000 	   59.0950 
    0.2670 	  117.8860 	    2.0000 	   42.0000 	   59.1340 
    0.3433 	  117.9580 	    2.0000 	   42.0000 	   59.1700 
    0.3128 	  118.0260 	    2.0000 	   42.0000 	   59.2040 
    0.4044 	  118.0960 	    2.0000 	   42.0000 	   59.2390 
    0.3433 	  118.1700 	    2.0000 	   42.0000 	   59.2760 
    0.3891 	  118.2400 	    2.0000 	   42.0000 	   59.3110 
    0.3738 	  118.3100 	    2.0000 	   42.0000 	   59.3460 
    0.4044 	  118.3800 	    2.0000 	   42.0000 	   59.3810 
    0.4349 	  118.4540 	    2.0000 	   42.0000 	   59.4180 
    0.3281 	  118.5240 	    2.0000 	   42.0000 	   59.4530 
    0.3891 	  118.5960 	    2.0000 	   42.0000 	   59.4890 
    0.3128 	  118.6660 	    2.0000 	   42.0000 	   59.5240 
    0.3738 	  118.7360 	    2.0000 	   42.0000 	   59.5590 
    0.3738 	  118.8020 	    2.0000 	   42.0000 	   59.5920 
    0.3891 	  118.8680 	    2.0000 	   42.0000 	   59.6250 
    0.3128 	  118.9360 	    2.0000 	   42.0000 	   59.6590 
    0.3433 	  119.0040 	    2.0000 	   42.0000 	   59.6930 
    0.3433 	  119.0740 	    2.0000 	   42.0000 	   59.7281 
    0.4044 	  119.1420 	    2.0000 	   42.0000 	   59.7621 
    0.4196 	  119.2140 	    2.0000 	   42.0000 	   59.7981 
    0.3433 	  119.2900 	    2.0000 	   42.0000 	   59.8361 
    0.3128 	  119.3640 	    2.0000 	   42.0000 	   59.8731 
    0.3891 	  119.4420 	    2.0000 	   42.0000 	   59.9121 
    0.2976 	  119.5200 	    2.0000 	   42.0000 	   59.9511 
    0.3281 	  119.5960 	    2.0000 	   42.0000 	   59.9891 
    0.3281 	  119.6800 	    2.0000 	   43.0000 	    0.0311 
    0.3128 	  119.7600 	    2.0000 	   43.0000 	    0.0711 
    0.3128 	  119.8420 	    2.0000 	   43.0000 	    0.1121 
    0.3738 	  119.9200 	    2.0000 	   43.0000 	    0.1511 
    0.3433 	  120.0020 	    2.0000 	   43.0000 	    0.1921 
    0.3891 	  120.0800 	    2.0000 	   43.0000 	    0.2311 
    0.3738 	  120.1700 	    2.0000 	   43.0000 	    0.2761 
    0.0381 	  120.2440 	    2.0000 	   43.0000 	    0.3131 
    0.0687 	  120.3260 	    2.0000 	   43.0000 	    0.3541 
    0.3738 	  120.3980 	    2.0000 	   43.0000 	    0.3901 
    0.3281 	  120.4800 	    2.0000 	   43.0000 	    0.4311 
    0.5722 	  120.5600 	    2.0000 	   43.0000 	    0.4711 
    0.3433 	  120.6380 	    2.0000 	   43.0000 	    0.5101 
    0.2823 	  120.7200 	    2.0000 	   43.0000 	    0.5511 
    0.4196 	  120.7940 	    2.0000 	   43.0000 	    0.5881 
    0.0687 	  120.8620 	    2.0000 	   43.0000 	    0.6221 
    0.5112 	  120.9340 	    2.0000 	   43.0000 	    0.6581 
    0.4044 	  121.0140 	    2.0000 	   43.0000 	    0.6981 
    0.5264 	  121.0940 	    2.0000 	   43.0000 	    0.7381 
    0.2060 	  121.1720 	    2.0000 	   43.0000 	    0.7771 
    0.3128 	  121.2480 	    2.0000 	   43.0000 	    0.8151 
    0.3281 	  121.3200 	    2.0000 	   43.0000 	    0.8511 
    0.4196 	  121.4020 	    2.0000 	   43.0000 	    0.8921 
    0.3433 	  121.4840 	    2.0000 	   43.0000 	    0.9331 
    0.3891 	  121.5660 	    2.0000 	   43.0000 	    0.9741 
    0.3738 	  121.6440 	    2.0000 	   43.0000 	    1.0131 
    0.4501 	  121.7240 	    2.0000 	   43.0000 	    1.0531 
    0.3586 	  121.7980 	    2.0000 	   43.0000 	    1.0901 
    0.4044 	  121.8800 	    2.0000 	   43.0000 	    1.1311 
    0.3738 	  121.9600 	    2.0000 	   43.0000 	    1.1711 
    0.3128 	  122.0400 	    2.0000 	   43.0000 	    1.2111 
    0.2365 	  122.1140 	    2.0000 	   43.0000 	    1.2481 
    0.3128 	  122.1920 	    2.0000 	   43.0000 	    1.2871 
    0.3738 	  122.2720 	    2.0000 	   43.0000 	    1.3271 
    0.3738 	  122.3440 	    2.0000 	   43.0000 	    1.3631 
    0.3433 	  122.4180 	    2.0000 	   43.0000 	    1.4001 
    0.2365 	  122.4920 	    2.0000 	   43.0000 	    1.4371 
