Thayer School of Engineering        Instron 4442 Mechanical Testing System
7/5/2018 4:39:26 AM

  Force (N)	Extension (mm)	Not Used	Not Used	Not Used	     Hour	    Minute	    Second
    1.4420 	    1.0250 	    4.0000 	   39.0000 	   54.9713 
    1.3199 	    1.0560 	    4.0000 	   39.0000 	   55.0023 
    1.3046 	    1.1260 	    4.0000 	   39.0000 	   55.0723 
    1.2894 	    1.1850 	    4.0000 	   39.0000 	   55.1313 
    1.3657 	    1.2150 	    4.0000 	   39.0000 	   55.1613 
    1.2589 	    1.2420 	    4.0000 	   39.0000 	   55.1883 
    1.2741 	    1.2960 	    4.0000 	   39.0000 	   55.2423 
    1.2741 	    1.3480 	    4.0000 	   39.0000 	   55.2943 
    1.2436 	    1.3970 	    4.0000 	   39.0000 	   55.3433 
    1.3504 	    1.4280 	    4.0000 	   39.0000 	   55.3743 
    1.3504 	    1.4830 	    4.0000 	   39.0000 	   55.4293 
    1.3046 	    1.5330 	    4.0000 	   39.0000 	   55.4793 
    1.2894 	    1.5620 	    4.0000 	   39.0000 	   55.5084 
    1.3199 	    1.6160 	    4.0000 	   39.0000 	   55.5624 
    1.4115 	    1.6450 	    4.0000 	   39.0000 	   55.5914 
    1.4572 	    1.6750 	    4.0000 	   39.0000 	   55.6214 
    1.4878 	    1.7310 	    4.0000 	   39.0000 	   55.6774 
    1.3199 	    1.7820 	    4.0000 	   39.0000 	   55.7284 
    1.3809 	    1.8120 	    4.0000 	   39.0000 	   55.7584 
    1.3504 	    1.8660 	    4.0000 	   39.0000 	   55.8124 
    1.6251 	    1.9160 	    4.0000 	   39.0000 	   55.8624 
    1.5335 	    1.9650 	    4.0000 	   39.0000 	   55.9114 
    1.3199 	    2.0160 	    4.0000 	   39.0000 	   55.9624 
    1.3504 	    2.0660 	    4.0000 	   39.0000 	   56.0124 
    1.3199 	    2.1230 	    4.0000 	   39.0000 	   56.0694 
    1.3504 	    2.1750 	    4.0000 	   39.0000 	   56.1214 
    1.3809 	    2.2280 	    4.0000 	   39.0000 	   56.1744 
    1.3809 	    2.2770 	    4.0000 	   39.0000 	   56.2234 
    1.6251 	    2.3260 	    4.0000 	   39.0000 	   56.2724 
    1.4115 	    2.3550 	    4.0000 	   39.0000 	   56.3014 
    1.6098 	    2.4100 	    4.0000 	   39.0000 	   56.3564 
    1.3504 	    2.4630 	    4.0000 	   39.0000 	   56.4094 
    1.5183 	    2.5180 	    4.0000 	   39.0000 	   56.4644 
    1.3199 	    2.5710 	    4.0000 	   39.0000 	   56.5174 
    1.3352 	    2.6250 	    4.0000 	   39.0000 	   56.5714 
    1.4725 	    2.6760 	    4.0000 	   39.0000 	   56.6224 
    1.4115 	    2.7320 	    4.0000 	   39.0000 	   56.6784 
    1.5030 	    2.7830 	    4.0000 	   39.0000 	   56.7294 
    1.4878 	    2.8340 	    4.0000 	   39.0000 	   56.7804 
    1.4725 	    2.8860 	    4.0000 	   39.0000 	   56.8324 
    1.5793 	    2.9190 	    4.0000 	   39.0000 	   56.8654 
    1.6251 	    2.9510 	    4.0000 	   39.0000 	   56.8974 
    1.4115 	    3.0090 	    4.0000 	   39.0000 	   56.9554 
    1.5030 	    3.0410 	    4.0000 	   39.0000 	   56.9874 
    1.4267 	    3.0980 	    4.0000 	   39.0000 	   57.0444 
    1.4878 	    3.1570 	    4.0000 	   39.0000 	   57.1034 
    1.4878 	    3.1860 	    4.0000 	   39.0000 	   57.1324 
    1.5030 	    3.2150 	    4.0000 	   39.0000 	   57.1614 
    1.5183 	    3.2430 	    4.0000 	   39.0000 	   57.1894 
    1.4725 	    3.2700 	    4.0000 	   39.0000 	   57.2164 
    1.5488 	    3.2970 	    4.0000 	   39.0000 	   57.2434 
    1.6403 	    3.3240 	    4.0000 	   39.0000 	   57.2705 
    1.4878 	    3.3520 	    4.0000 	   39.0000 	   57.2985 
    1.5030 	    3.4060 	    4.0000 	   39.0000 	   57.3525 
    1.5488 	    3.4350 	    4.0000 	   39.0000 	   57.3815 
    1.5946 	    3.4650 	    4.0000 	   39.0000 	   57.4115 
    1.5946 	    3.4970 	    4.0000 	   39.0000 	   57.4435 
    1.5183 	    3.5300 	    4.0000 	   39.0000 	   57.4765 
    1.4115 	    3.5600 	    4.0000 	   39.0000 	   57.5065 
    1.4572 	    3.5950 	    4.0000 	   39.0000 	   57.5415 
    1.4420 	    3.6270 	    4.0000 	   39.0000 	   57.5735 
    1.5793 	    3.6600 	    4.0000 	   39.0000 	   57.6065 
    1.6098 	    3.6920 	    4.0000 	   39.0000 	   57.6385 
    1.5030 	    3.7270 	    4.0000 	   39.0000 	   57.6735 
    1.6251 	    3.7600 	    4.0000 	   39.0000 	   57.7065 
    1.5946 	    3.7960 	    4.0000 	   39.0000 	   57.7425 
    1.4267 	    3.8280 	    4.0000 	   39.0000 	   57.7745 
    1.4267 	    3.8610 	    4.0000 	   39.0000 	   57.8075 
    1.6403 	    3.8940 	    4.0000 	   39.0000 	   57.8405 
    1.5946 	    3.9260 	    4.0000 	   39.0000 	   57.8725 
    1.5030 	    3.9580 	    4.0000 	   39.0000 	   57.9045 
    1.5335 	    3.9900 	    4.0000 	   39.0000 	   57.9365 
    1.5183 	    4.0260 	    4.0000 	   39.0000 	   57.9725 
    1.6709 	    4.0560 	    4.0000 	   39.0000 	   58.0025 
    1.3504 	    4.0860 	    4.0000 	   39.0000 	   58.0325 
    1.6251 	    4.1160 	    4.0000 	   39.0000 	   58.0625 
    1.5640 	    4.1750 	    4.0000 	   39.0000 	   58.1215 
    1.5335 	    4.2050 	    4.0000 	   39.0000 	   58.1515 
    1.6251 	    4.2330 	    4.0000 	   39.0000 	   58.1795 
    1.5335 	    4.2600 	    4.0000 	   39.0000 	   58.2065 
    1.5946 	    4.2840 	    4.0000 	   39.0000 	   58.2305 
    1.7319 	    4.3120 	    4.0000 	   39.0000 	   58.2585 
    1.5640 	    4.3400 	    4.0000 	   39.0000 	   58.2865 
    1.4420 	    4.3980 	    4.0000 	   39.0000 	   58.3445 
    1.5183 	    4.4280 	    4.0000 	   39.0000 	   58.3745 
    1.4725 	    4.4610 	    4.0000 	   39.0000 	   58.4075 
    1.4725 	    4.4940 	    4.0000 	   39.0000 	   58.4405 
    1.4420 	    4.5260 	    4.0000 	   39.0000 	   58.4725 
    1.7166 	    4.5540 	    4.0000 	   39.0000 	   58.5005 
    1.5183 	    4.5860 	    4.0000 	   39.0000 	   58.5325 
    1.5793 	    4.6200 	    4.0000 	   39.0000 	   58.5665 
    1.4267 	    4.6490 	    4.0000 	   39.0000 	   58.5955 
    1.7472 	    4.6810 	    4.0000 	   39.0000 	   58.6275 
    1.6403 	    4.7110 	    4.0000 	   39.0000 	   58.6575 
    1.7472 	    4.7440 	    4.0000 	   39.0000 	   58.6905 
    1.5335 	    4.7760 	    4.0000 	   39.0000 	   58.7225 
    1.5946 	    4.8090 	    4.0000 	   39.0000 	   58.7555 
    1.5488 	    4.8400 	    4.0000 	   39.0000 	   58.7865 
    1.6861 	    4.8730 	    4.0000 	   39.0000 	   58.8195 
    1.6556 	    4.9030 	    4.0000 	   39.0000 	   58.8495 
    1.5946 	    4.9360 	    4.0000 	   39.0000 	   58.8825 
    1.4878 	    4.9710 	    4.0000 	   39.0000 	   58.9175 
    1.8235 	    5.0010 	    4.0000 	   39.0000 	   58.9475 
    1.6709 	    5.0340 	    4.0000 	   39.0000 	   58.9805 
    1.6709 	    5.0940 	    4.0000 	   39.0000 	   59.0406 
    1.6709 	    5.1200 	    4.0000 	   39.0000 	   59.0666 
    1.6861 	    5.1510 	    4.0000 	   39.0000 	   59.0976 
    1.4267 	    5.1800 	    4.0000 	   39.0000 	   59.1266 
    1.5640 	    5.2100 	    4.0000 	   39.0000 	   59.1566 
    1.7319 	    5.2350 	    4.0000 	   39.0000 	   59.1816 
    1.6709 	    5.2630 	    4.0000 	   39.0000 	   59.2096 
    1.6709 	    5.2880 	    4.0000 	   39.0000 	   59.2346 
    1.6556 	    5.3160 	    4.0000 	   39.0000 	   59.2626 
    1.6709 	    5.3440 	    4.0000 	   39.0000 	   59.2906 
    1.6709 	    5.3760 	    4.0000 	   39.0000 	   59.3226 
    1.6098 	    5.4080 	    4.0000 	   39.0000 	   59.3546 
    1.8692 	    5.4390 	    4.0000 	   39.0000 	   59.3856 
    1.7929 	    5.4720 	    4.0000 	   39.0000 	   59.4186 
    1.5335 	    5.5030 	    4.0000 	   39.0000 	   59.4496 
    1.6556 	    5.5320 	    4.0000 	   39.0000 	   59.4786 
    1.6403 	    5.5640 	    4.0000 	   39.0000 	   59.5106 
    1.6098 	    5.5950 	    4.0000 	   39.0000 	   59.5416 
    1.6098 	    5.6250 	    4.0000 	   39.0000 	   59.5716 
    1.5793 	    5.6550 	    4.0000 	   39.0000 	   59.6016 
    1.8235 	    5.6870 	    4.0000 	   39.0000 	   59.6336 
    1.6098 	    5.7160 	    4.0000 	   39.0000 	   59.6626 
    1.7624 	    5.7450 	    4.0000 	   39.0000 	   59.6916 
    1.7166 	    5.7760 	    4.0000 	   39.0000 	   59.7226 
    1.6251 	    5.8070 	    4.0000 	   39.0000 	   59.7536 
    1.7166 	    5.8350 	    4.0000 	   39.0000 	   59.7816 
    1.6861 	    5.8660 	    4.0000 	   39.0000 	   59.8126 
    1.6403 	    5.8960 	    4.0000 	   39.0000 	   59.8426 
    1.5793 	    5.9260 	    4.0000 	   39.0000 	   59.8726 
    1.6556 	    5.9550 	    4.0000 	   39.0000 	   59.9016 
    1.7166 	    5.9870 	    4.0000 	   39.0000 	   59.9336 
    1.8540 	    6.0170 	    4.0000 	   39.0000 	   59.9636 
    1.7624 	    6.0460 	    4.0000 	   39.0000 	   59.9926 
    1.8845 	    6.0750 	    4.0000 	   40.0000 	    0.0216 
    1.8540 	    6.1030 	    4.0000 	   40.0000 	    0.0496 
    1.8997 	    6.1300 	    4.0000 	   40.0000 	    0.0766 
    1.7319 	    6.1590 	    4.0000 	   40.0000 	    0.1056 
    1.8082 	    6.1850 	    4.0000 	   40.0000 	    0.1316 
    1.6709 	    6.2110 	    4.0000 	   40.0000 	    0.1576 
    1.6098 	    6.2370 	    4.0000 	   40.0000 	    0.1836 
    1.9455 	    6.2650 	    4.0000 	   40.0000 	    0.2116 
    1.7166 	    6.2890 	    4.0000 	   40.0000 	    0.2356 
    1.7319 	    6.3160 	    4.0000 	   40.0000 	    0.2626 
    1.9455 	    6.3450 	    4.0000 	   40.0000 	    0.2916 
    1.6403 	    6.3800 	    4.0000 	   40.0000 	    0.3266 
    1.8387 	    6.4100 	    4.0000 	   40.0000 	    0.3566 
    1.7319 	    6.4400 	    4.0000 	   40.0000 	    0.3866 
    1.8997 	    6.4720 	    4.0000 	   40.0000 	    0.4186 
    1.7014 	    6.5020 	    4.0000 	   40.0000 	    0.4486 
    1.6403 	    6.5320 	    4.0000 	   40.0000 	    0.4786 
    1.8387 	    6.5650 	    4.0000 	   40.0000 	    0.5116 
    1.7472 	    6.5950 	    4.0000 	   40.0000 	    0.5416 
    1.8082 	    6.6260 	    4.0000 	   40.0000 	    0.5726 
    1.7319 	    6.6560 	    4.0000 	   40.0000 	    0.6026 
    1.6861 	    6.6890 	    4.0000 	   40.0000 	    0.6356 
    1.8387 	    6.7180 	    4.0000 	   40.0000 	    0.6646 
    1.7929 	    6.7470 	    4.0000 	   40.0000 	    0.6936 
    1.7472 	    6.7800 	    4.0000 	   40.0000 	    0.7266 
    1.7777 	    6.8080 	    4.0000 	   40.0000 	    0.7546 
    1.8692 	    6.8360 	    4.0000 	   40.0000 	    0.7827 
    1.7624 	    6.8700 	    4.0000 	   40.0000 	    0.8167 
    1.8387 	    6.8980 	    4.0000 	   40.0000 	    0.8447 
    1.8235 	    6.9290 	    4.0000 	   40.0000 	    0.8757 
    1.6709 	    6.9590 	    4.0000 	   40.0000 	    0.9057 
    1.8997 	    6.9940 	    4.0000 	   40.0000 	    0.9407 
    1.5640 	    7.0240 	    4.0000 	   40.0000 	    0.9707 
    1.5335 	    7.0530 	    4.0000 	   40.0000 	    0.9997 
    1.8235 	    7.0850 	    4.0000 	   40.0000 	    1.0317 
    1.5488 	    7.1120 	    4.0000 	   40.0000 	    1.0587 
    1.7624 	    7.1390 	    4.0000 	   40.0000 	    1.0857 
    1.8235 	    7.1700 	    4.0000 	   40.0000 	    1.1167 
    1.9303 	    7.1960 	    4.0000 	   40.0000 	    1.1427 
    1.7929 	    7.2220 	    4.0000 	   40.0000 	    1.1687 
    1.7777 	    7.2490 	    4.0000 	   40.0000 	    1.1957 
    1.8082 	    7.2770 	    4.0000 	   40.0000 	    1.2237 
    1.8845 	    7.3020 	    4.0000 	   40.0000 	    1.2487 
    1.8997 	    7.3290 	    4.0000 	   40.0000 	    1.2757 
    1.6861 	    7.3620 	    4.0000 	   40.0000 	    1.3077 
    1.7929 	    7.3890 	    4.0000 	   40.0000 	    1.3357 
    1.7929 	    7.4140 	    4.0000 	   40.0000 	    1.3607 
    1.8540 	    7.4440 	    4.0000 	   40.0000 	    1.3907 
    1.7472 	    7.4800 	    4.0000 	   40.0000 	    1.4267 
    1.7472 	    7.5090 	    4.0000 	   40.0000 	    1.4557 
    1.9150 	    7.5410 	    4.0000 	   40.0000 	    1.4877 
    1.8387 	    7.5730 	    4.0000 	   40.0000 	    1.5197 
    1.8997 	    7.6030 	    4.0000 	   40.0000 	    1.5497 
    1.8540 	    7.6340 	    4.0000 	   40.0000 	    1.5807 
    1.8997 	    7.6680 	    4.0000 	   40.0000 	    1.6147 
    1.6861 	    7.6990 	    4.0000 	   40.0000 	    1.6457 
    1.8387 	    7.7290 	    4.0000 	   40.0000 	    1.6757 
    1.7929 	    7.7590 	    4.0000 	   40.0000 	    1.7057 
    1.8235 	    7.7930 	    4.0000 	   40.0000 	    1.7397 
    1.9760 	    7.8220 	    4.0000 	   40.0000 	    1.7687 
    1.7472 	    7.8530 	    4.0000 	   40.0000 	    1.7997 
    2.0218 	    7.8860 	    4.0000 	   40.0000 	    1.8327 
    1.9150 	    7.9150 	    4.0000 	   40.0000 	    1.8617 
    1.9455 	    7.9480 	    4.0000 	   40.0000 	    1.8947 
    1.8692 	    7.9760 	    4.0000 	   40.0000 	    1.9227 
    1.8387 	    8.0070 	    4.0000 	   40.0000 	    1.9537 
    1.8692 	    8.0370 	    4.0000 	   40.0000 	    1.9837 
    2.0523 	    8.0710 	    4.0000 	   40.0000 	    2.0177 
    1.9608 	    8.1000 	    4.0000 	   40.0000 	    2.0467 
    1.6861 	    8.1290 	    4.0000 	   40.0000 	    2.0757 
    1.8997 	    8.1580 	    4.0000 	   40.0000 	    2.1047 
    1.8387 	    8.1870 	    4.0000 	   40.0000 	    2.1337 
    1.8692 	    8.2140 	    4.0000 	   40.0000 	    2.1607 
    1.8845 	    8.2410 	    4.0000 	   40.0000 	    2.1877 
    1.9760 	    8.2700 	    4.0000 	   40.0000 	    2.2167 
    2.0218 	    8.2950 	    4.0000 	   40.0000 	    2.2417 
    1.9455 	    8.3220 	    4.0000 	   40.0000 	    2.2687 
    1.9455 	    8.3510 	    4.0000 	   40.0000 	    2.2977 
    2.1134 	    8.3800 	    4.0000 	   40.0000 	    2.3267 
    2.1134 	    8.4100 	    4.0000 	   40.0000 	    2.3567 
    2.0981 	    8.4430 	    4.0000 	   40.0000 	    2.3897 
    1.9150 	    8.4760 	    4.0000 	   40.0000 	    2.4227 
    1.9455 	    8.5070 	    4.0000 	   40.0000 	    2.4537 
    2.0676 	    8.5370 	    4.0000 	   40.0000 	    2.4837 
    1.9608 	    8.5670 	    4.0000 	   40.0000 	    2.5138 
    2.1592 	    8.5980 	    4.0000 	   40.0000 	    2.5448 
    2.0523 	    8.6290 	    4.0000 	   40.0000 	    2.5758 
    1.9303 	    8.6590 	    4.0000 	   40.0000 	    2.6058 
    1.8540 	    8.6950 	    4.0000 	   40.0000 	    2.6418 
    2.0523 	    8.7260 	    4.0000 	   40.0000 	    2.6728 
    2.0829 	    8.7570 	    4.0000 	   40.0000 	    2.7038 
    2.0981 	    8.7870 	    4.0000 	   40.0000 	    2.7338 
    1.9760 	    8.8160 	    4.0000 	   40.0000 	    2.7628 
    2.0066 	    8.8470 	    4.0000 	   40.0000 	    2.7938 
    1.7319 	    8.8810 	    4.0000 	   40.0000 	    2.8278 
    2.1134 	    8.9110 	    4.0000 	   40.0000 	    2.8578 
    2.0218 	    8.9410 	    4.0000 	   40.0000 	    2.8878 
    1.8692 	    8.9750 	    4.0000 	   40.0000 	    2.9218 
    2.0218 	    9.0050 	    4.0000 	   40.0000 	    2.9518 
    2.0981 	    9.0350 	    4.0000 	   40.0000 	    2.9818 
    1.9760 	    9.0670 	    4.0000 	   40.0000 	    3.0138 
    1.9913 	    9.0950 	    4.0000 	   40.0000 	    3.0418 
    2.1286 	    9.1220 	    4.0000 	   40.0000 	    3.0688 
    1.9913 	    9.1500 	    4.0000 	   40.0000 	    3.0968 
    2.0218 	    9.1790 	    4.0000 	   40.0000 	    3.1258 
    2.1897 	    9.2050 	    4.0000 	   40.0000 	    3.1518 
    2.0218 	    9.2320 	    4.0000 	   40.0000 	    3.1788 
    2.1439 	    9.2600 	    4.0000 	   40.0000 	    3.2068 
    1.7624 	    9.2860 	    4.0000 	   40.0000 	    3.2328 
    2.1134 	    9.3110 	    4.0000 	   40.0000 	    3.2578 
    2.1134 	    9.3380 	    4.0000 	   40.0000 	    3.2848 
    2.0371 	    9.3680 	    4.0000 	   40.0000 	    3.3148 
    2.1286 	    9.3990 	    4.0000 	   40.0000 	    3.3458 
    1.8235 	    9.4280 	    4.0000 	   40.0000 	    3.3748 
    2.0066 	    9.4590 	    4.0000 	   40.0000 	    3.4058 
    2.1134 	    9.4950 	    4.0000 	   40.0000 	    3.4418 
    2.0218 	    9.5250 	    4.0000 	   40.0000 	    3.4718 
    2.1897 	    9.5570 	    4.0000 	   40.0000 	    3.5038 
    2.2049 	    9.5870 	    4.0000 	   40.0000 	    3.5338 
    2.0371 	    9.6190 	    4.0000 	   40.0000 	    3.5658 
    1.9913 	    9.6520 	    4.0000 	   40.0000 	    3.5988 
    2.1439 	    9.6860 	    4.0000 	   40.0000 	    3.6328 
    2.0066 	    9.7150 	    4.0000 	   40.0000 	    3.6618 
    2.0981 	    9.7440 	    4.0000 	   40.0000 	    3.6908 
    2.1744 	    9.7760 	    4.0000 	   40.0000 	    3.7228 
    2.0066 	    9.8070 	    4.0000 	   40.0000 	    3.7538 
    2.0066 	    9.8380 	    4.0000 	   40.0000 	    3.7848 
    1.9455 	    9.8700 	    4.0000 	   40.0000 	    3.8168 
    2.1897 	    9.9000 	    4.0000 	   40.0000 	    3.8468 
    2.0829 	    9.9300 	    4.0000 	   40.0000 	    3.8768 
    2.1134 	    9.9610 	    4.0000 	   40.0000 	    3.9078 
    2.2049 	    9.9930 	    4.0000 	   40.0000 	    3.9398 
    2.2049 	   10.0250 	    4.0000 	   40.0000 	    3.9718 
    2.0371 	   10.0560 	    4.0000 	   40.0000 	    4.0028 
    2.2202 	   10.0860 	    4.0000 	   40.0000 	    4.0328 
    1.7166 	   10.1160 	    4.0000 	   40.0000 	    4.0628 
    2.1592 	   10.1440 	    4.0000 	   40.0000 	    4.0908 
    1.8082 	   10.1730 	    4.0000 	   40.0000 	    4.1198 
    2.1286 	   10.1990 	    4.0000 	   40.0000 	    4.1458 
    2.1134 	   10.2260 	    4.0000 	   40.0000 	    4.1728 
    2.2812 	   10.2540 	    4.0000 	   40.0000 	    4.2008 
    1.9760 	   10.2840 	    4.0000 	   40.0000 	    4.2308 
    2.1134 	   10.3100 	    4.0000 	   40.0000 	    4.2568 
    2.1744 	   10.3370 	    4.0000 	   40.0000 	    4.2839 
    2.3423 	   10.3650 	    4.0000 	   40.0000 	    4.3119 
    2.0218 	   10.3940 	    4.0000 	   40.0000 	    4.3409 
    2.0981 	   10.4270 	    4.0000 	   40.0000 	    4.3739 
    2.1592 	   10.4600 	    4.0000 	   40.0000 	    4.4069 
    2.2812 	   10.4940 	    4.0000 	   40.0000 	    4.4409 
    2.2049 	   10.5260 	    4.0000 	   40.0000 	    4.4729 
    2.1744 	   10.5600 	    4.0000 	   40.0000 	    4.5069 
    2.2660 	   10.5900 	    4.0000 	   40.0000 	    4.5369 
    2.0829 	   10.6210 	    4.0000 	   40.0000 	    4.5679 
    2.3728 	   10.6500 	    4.0000 	   40.0000 	    4.5969 
    2.2049 	   10.6840 	    4.0000 	   40.0000 	    4.6309 
    2.2812 	   10.7140 	    4.0000 	   40.0000 	    4.6609 
    2.2812 	   10.7430 	    4.0000 	   40.0000 	    4.6899 
    2.1897 	   10.7730 	    4.0000 	   40.0000 	    4.7199 
    2.0523 	   10.8030 	    4.0000 	   40.0000 	    4.7499 
    2.1744 	   10.8350 	    4.0000 	   40.0000 	    4.7819 
    2.2049 	   10.8670 	    4.0000 	   40.0000 	    4.8139 
    2.1897 	   10.9000 	    4.0000 	   40.0000 	    4.8469 
    2.2812 	   10.9290 	    4.0000 	   40.0000 	    4.8759 
    2.1744 	   10.9600 	    4.0000 	   40.0000 	    4.9069 
    2.1897 	   10.9930 	    4.0000 	   40.0000 	    4.9399 
    1.9913 	   11.0230 	    4.0000 	   40.0000 	    4.9699 
    2.1286 	   11.0540 	    4.0000 	   40.0000 	    5.0009 
    2.1744 	   11.0850 	    4.0000 	   40.0000 	    5.0319 
    2.2507 	   11.1140 	    4.0000 	   40.0000 	    5.0609 
    2.1592 	   11.1420 	    4.0000 	   40.0000 	    5.0889 
    2.2660 	   11.1720 	    4.0000 	   40.0000 	    5.1189 
    2.2812 	   11.1990 	    4.0000 	   40.0000 	    5.1459 
    2.3423 	   11.2260 	    4.0000 	   40.0000 	    5.1729 
    2.2660 	   11.2530 	    4.0000 	   40.0000 	    5.1999 
    2.2049 	   11.2830 	    4.0000 	   40.0000 	    5.2299 
    2.0829 	   11.3090 	    4.0000 	   40.0000 	    5.2559 
    2.1744 	   11.3380 	    4.0000 	   40.0000 	    5.2849 
    2.1897 	   11.3680 	    4.0000 	   40.0000 	    5.3149 
    2.2660 	   11.3980 	    4.0000 	   40.0000 	    5.3449 
    2.2965 	   11.4270 	    4.0000 	   40.0000 	    5.3739 
    2.2049 	   11.4600 	    4.0000 	   40.0000 	    5.4069 
    2.2507 	   11.4940 	    4.0000 	   40.0000 	    5.4409 
    2.3117 	   11.5230 	    4.0000 	   40.0000 	    5.4699 
    2.2660 	   11.5520 	    4.0000 	   40.0000 	    5.4989 
    2.2354 	   11.5870 	    4.0000 	   40.0000 	    5.5339 
    2.1744 	   11.6190 	    4.0000 	   40.0000 	    5.5659 
    2.2660 	   11.6490 	    4.0000 	   40.0000 	    5.5959 
    2.0066 	   11.6790 	    4.0000 	   40.0000 	    5.6259 
    2.3880 	   11.7110 	    4.0000 	   40.0000 	    5.6579 
    2.3423 	   11.7410 	    4.0000 	   40.0000 	    5.6879 
    2.2660 	   11.7740 	    4.0000 	   40.0000 	    5.7209 
    2.4186 	   11.8060 	    4.0000 	   40.0000 	    5.7529 
    2.2507 	   11.8410 	    4.0000 	   40.0000 	    5.7879 
    2.2202 	   11.8750 	    4.0000 	   40.0000 	    5.8219 
    2.3270 	   11.9060 	    4.0000 	   40.0000 	    5.8529 
    2.3880 	   11.9350 	    4.0000 	   40.0000 	    5.8819 
    2.2965 	   11.9670 	    4.0000 	   40.0000 	    5.9139 
    2.3728 	   11.9970 	    4.0000 	   40.0000 	    5.9439 
    2.2660 	   12.0270 	    4.0000 	   40.0000 	    5.9739 
    2.3728 	   12.0590 	    4.0000 	   40.0000 	    6.0059 
    2.3270 	   12.0920 	    4.0000 	   40.0000 	    6.0390 
    2.3270 	   12.1220 	    4.0000 	   40.0000 	    6.0690 
    2.3728 	   12.1500 	    4.0000 	   40.0000 	    6.0970 
    2.3880 	   12.1780 	    4.0000 	   40.0000 	    6.1250 
    2.3423 	   12.2060 	    4.0000 	   40.0000 	    6.1530 
    2.2660 	   12.2330 	    4.0000 	   40.0000 	    6.1800 
    2.3117 	   12.2640 	    4.0000 	   40.0000 	    6.2110 
    2.0981 	   12.2910 	    4.0000 	   40.0000 	    6.2380 
    2.5254 	   12.3180 	    4.0000 	   40.0000 	    6.2650 
    2.3575 	   12.3450 	    4.0000 	   40.0000 	    6.2920 
    2.4338 	   12.3780 	    4.0000 	   40.0000 	    6.3250 
    2.5406 	   12.4080 	    4.0000 	   40.0000 	    6.3550 
    2.2812 	   12.4410 	    4.0000 	   40.0000 	    6.3880 
    2.4491 	   12.4770 	    4.0000 	   40.0000 	    6.4240 
    2.3270 	   12.5070 	    4.0000 	   40.0000 	    6.4540 
    2.5711 	   12.5400 	    4.0000 	   40.0000 	    6.4870 
    2.3117 	   12.5720 	    4.0000 	   40.0000 	    6.5190 
    2.3423 	   12.6020 	    4.0000 	   40.0000 	    6.5490 
    2.3117 	   12.6350 	    4.0000 	   40.0000 	    6.5820 
    2.5559 	   12.6720 	    4.0000 	   40.0000 	    6.6190 
    2.4033 	   12.7030 	    4.0000 	   40.0000 	    6.6500 
    2.3423 	   12.7320 	    4.0000 	   40.0000 	    6.6790 
    2.4033 	   12.7640 	    4.0000 	   40.0000 	    6.7110 
    2.4491 	   12.7960 	    4.0000 	   40.0000 	    6.7430 
    2.4033 	   12.8260 	    4.0000 	   40.0000 	    6.7730 
    2.3728 	   12.8590 	    4.0000 	   40.0000 	    6.8060 
    2.2965 	   12.8910 	    4.0000 	   40.0000 	    6.8380 
    2.5406 	   12.9250 	    4.0000 	   40.0000 	    6.8720 
    2.3423 	   12.9580 	    4.0000 	   40.0000 	    6.9050 
    2.4796 	   12.9890 	    4.0000 	   40.0000 	    6.9360 
    2.4338 	   13.0200 	    4.0000 	   40.0000 	    6.9670 
    2.4186 	   13.0520 	    4.0000 	   40.0000 	    6.9990 
    2.3728 	   13.0850 	    4.0000 	   40.0000 	    7.0320 
    2.5406 	   13.1120 	    4.0000 	   40.0000 	    7.0590 
    2.4491 	   13.1420 	    4.0000 	   40.0000 	    7.0890 
    2.5101 	   13.1710 	    4.0000 	   40.0000 	    7.1180 
    2.4643 	   13.2000 	    4.0000 	   40.0000 	    7.1470 
    2.2812 	   13.2270 	    4.0000 	   40.0000 	    7.1740 
    2.4491 	   13.2600 	    4.0000 	   40.0000 	    7.2070 
    2.3575 	   13.2880 	    4.0000 	   40.0000 	    7.2350 
    2.4796 	   13.3140 	    4.0000 	   40.0000 	    7.2610 
    2.5254 	   13.3400 	    4.0000 	   40.0000 	    7.2870 
    2.4948 	   13.3680 	    4.0000 	   40.0000 	    7.3150 
    2.5406 	   13.3990 	    4.0000 	   40.0000 	    7.3460 
    2.4338 	   13.4300 	    4.0000 	   40.0000 	    7.3770 
    2.5254 	   13.4630 	    4.0000 	   40.0000 	    7.4090 
    2.5101 	   13.4960 	    4.0000 	   40.0000 	    7.4420 
    2.4491 	   13.5290 	    4.0000 	   40.0000 	    7.4750 
    2.4948 	   13.5610 	    4.0000 	   40.0000 	    7.5070 
    2.4948 	   13.5950 	    4.0000 	   40.0000 	    7.5410 
    2.6169 	   13.6270 	    4.0000 	   40.0000 	    7.5730 
    2.4948 	   13.6600 	    4.0000 	   40.0000 	    7.6060 
    2.5559 	   13.7270 	    4.0000 	   40.0000 	    7.6730 
    2.4948 	   13.7600 	    4.0000 	   40.0000 	    7.7060 
    2.4948 	   13.7930 	    4.0000 	   40.0000 	    7.7390 
    2.5254 	   13.8250 	    4.0000 	   40.0000 	    7.7711 
    2.7390 	   13.8550 	    4.0000 	   40.0000 	    7.8011 
    2.5101 	   13.8900 	    4.0000 	   40.0000 	    7.8361 
    2.5101 	   13.9210 	    4.0000 	   40.0000 	    7.8671 
    2.6474 	   13.9500 	    4.0000 	   40.0000 	    7.8951 
    2.4948 	   13.9790 	    4.0000 	   40.0000 	    7.9251 
    2.4491 	   14.0080 	    4.0000 	   40.0000 	    7.9541 
    2.6780 	   14.0380 	    4.0000 	   40.0000 	    7.9841 
    2.5406 	   14.0740 	    4.0000 	   40.0000 	    8.0201 
    2.6932 	   14.1040 	    4.0000 	   40.0000 	    8.0501 
    2.5711 	   14.1320 	    4.0000 	   40.0000 	    8.0781 
    2.2202 	   14.1610 	    4.0000 	   40.0000 	    8.1071 
    2.6932 	   14.1900 	    4.0000 	   40.0000 	    8.1361 
    2.4033 	   14.2180 	    4.0000 	   40.0000 	    8.1641 
    2.5864 	   14.2470 	    4.0000 	   40.0000 	    8.1931 
    2.5864 	   14.2750 	    4.0000 	   40.0000 	    8.2211 
    2.6017 	   14.3040 	    4.0000 	   40.0000 	    8.2501 
    2.5559 	   14.3350 	    4.0000 	   40.0000 	    8.2811 
    2.6017 	   14.3620 	    4.0000 	   40.0000 	    8.3081 
    2.5559 	   14.3910 	    4.0000 	   40.0000 	    8.3371 
    2.7085 	   14.4190 	    4.0000 	   40.0000 	    8.3651 
    2.7237 	   14.4460 	    4.0000 	   40.0000 	    8.3921 
    2.4491 	   14.4730 	    4.0000 	   40.0000 	    8.4191 
    2.5711 	   14.5030 	    4.0000 	   40.0000 	    8.4491 
    2.6474 	   14.5350 	    4.0000 	   40.0000 	    8.4811 
    2.6322 	   14.5700 	    4.0000 	   40.0000 	    8.5161 
    2.7085 	   14.6010 	    4.0000 	   40.0000 	    8.5471 
    2.4796 	   14.6320 	    4.0000 	   40.0000 	    8.5781 
    2.6169 	   14.6630 	    4.0000 	   40.0000 	    8.6091 
    2.6627 	   14.6940 	    4.0000 	   40.0000 	    8.6401 
    2.6169 	   14.7250 	    4.0000 	   40.0000 	    8.6711 
    2.5254 	   14.7560 	    4.0000 	   40.0000 	    8.7021 
    2.6780 	   14.7870 	    4.0000 	   40.0000 	    8.7331 
    2.6474 	   14.8210 	    4.0000 	   40.0000 	    8.7671 
    2.5254 	   14.8510 	    4.0000 	   40.0000 	    8.7971 
    2.6322 	   14.8830 	    4.0000 	   40.0000 	    8.8291 
    2.6780 	   14.9130 	    4.0000 	   40.0000 	    8.8591 
    2.8153 	   14.9480 	    4.0000 	   40.0000 	    8.8941 
    2.5711 	   14.9800 	    4.0000 	   40.0000 	    8.9261 
    2.6627 	   15.0140 	    4.0000 	   40.0000 	    8.9601 
    2.6932 	   15.0440 	    4.0000 	   40.0000 	    8.9901 
    2.6322 	   15.0790 	    4.0000 	   40.0000 	    9.0251 
    2.6932 	   15.1070 	    4.0000 	   40.0000 	    9.0531 
    2.6017 	   15.1380 	    4.0000 	   40.0000 	    9.0841 
    2.3270 	   15.1670 	    4.0000 	   40.0000 	    9.1131 
    2.7543 	   15.1960 	    4.0000 	   40.0000 	    9.1421 
    2.8000 	   15.2270 	    4.0000 	   40.0000 	    9.1731 
    2.9374 	   15.2560 	    4.0000 	   40.0000 	    9.2021 
    2.7543 	   15.2850 	    4.0000 	   40.0000 	    9.2311 
    2.7543 	   15.3450 	    4.0000 	   40.0000 	    9.2911 
    2.8305 	   15.3720 	    4.0000 	   40.0000 	    9.3181 
    2.8000 	   15.4010 	    4.0000 	   40.0000 	    9.3471 
    2.7237 	   15.4300 	    4.0000 	   40.0000 	    9.3761 
    2.8153 	   15.4630 	    4.0000 	   40.0000 	    9.4091 
    2.7543 	   15.4940 	    4.0000 	   40.0000 	    9.4401 
    2.7237 	   15.5280 	    4.0000 	   40.0000 	    9.4741 
    2.6780 	   15.5610 	    4.0000 	   40.0000 	    9.5071 
    2.7085 	   15.5970 	    4.0000 	   40.0000 	    9.5432 
    2.7237 	   15.6280 	    4.0000 	   40.0000 	    9.5742 
    2.9068 	   15.6630 	    4.0000 	   40.0000 	    9.6092 
    2.8305 	   15.6950 	    4.0000 	   40.0000 	    9.6412 
    2.7695 	   15.7290 	    4.0000 	   40.0000 	    9.6742 
    2.6932 	   15.7610 	    4.0000 	   40.0000 	    9.7072 
    2.7390 	   15.7970 	    4.0000 	   40.0000 	    9.7432 
    2.7085 	   15.8330 	    4.0000 	   40.0000 	    9.7792 
    2.9221 	   15.8640 	    4.0000 	   40.0000 	    9.8102 
    2.7237 	   15.8940 	    4.0000 	   40.0000 	    9.8402 
    2.8458 	   15.9280 	    4.0000 	   40.0000 	    9.8742 
    2.7695 	   15.9610 	    4.0000 	   40.0000 	    9.9072 
    2.9831 	   15.9910 	    4.0000 	   40.0000 	    9.9372 
    2.9526 	   16.0190 	    4.0000 	   40.0000 	    9.9652 
    2.7695 	   16.0460 	    4.0000 	   40.0000 	    9.9922 
    2.9831 	   16.0790 	    4.0000 	   40.0000 	   10.0252 
    2.9831 	   16.1070 	    4.0000 	   40.0000 	   10.0532 
    2.8458 	   16.1350 	    4.0000 	   40.0000 	   10.0812 
    2.8305 	   16.1630 	    4.0000 	   40.0000 	   10.1092 
    2.8763 	   16.1910 	    4.0000 	   40.0000 	   10.1372 
    2.8153 	   16.2200 	    4.0000 	   40.0000 	   10.1662 
    2.5711 	   16.2480 	    4.0000 	   40.0000 	   10.1942 
    2.8305 	   16.2770 	    4.0000 	   40.0000 	   10.2222 
    2.8153 	   16.3040 	    4.0000 	   40.0000 	   10.2502 
    2.8916 	   16.3340 	    4.0000 	   40.0000 	   10.2802 
    2.9526 	   16.3610 	    4.0000 	   40.0000 	   10.3072 
    2.8611 	   16.3880 	    4.0000 	   40.0000 	   10.3342 
    2.7848 	   16.4190 	    4.0000 	   40.0000 	   10.3652 
    2.8611 	   16.4490 	    4.0000 	   40.0000 	   10.3952 
    2.9374 	   16.4800 	    4.0000 	   40.0000 	   10.4262 
    2.8611 	   16.5150 	    4.0000 	   40.0000 	   10.4612 
    2.9374 	   16.5480 	    4.0000 	   40.0000 	   10.4942 
    2.8305 	   16.5810 	    4.0000 	   40.0000 	   10.5272 
    2.8458 	   16.6140 	    4.0000 	   40.0000 	   10.5602 
    2.9679 	   16.6470 	    4.0000 	   40.0000 	   10.5932 
    2.8611 	   16.6810 	    4.0000 	   40.0000 	   10.6272 
    2.9068 	   16.7130 	    4.0000 	   40.0000 	   10.6592 
    2.7543 	   16.7440 	    4.0000 	   40.0000 	   10.6902 
    3.0137 	   16.7770 	    4.0000 	   40.0000 	   10.7232 
    2.7237 	   16.8090 	    4.0000 	   40.0000 	   10.7552 
    2.8305 	   16.8450 	    4.0000 	   40.0000 	   10.7912 
    2.9831 	   16.8790 	    4.0000 	   40.0000 	   10.8252 
    2.9374 	   16.9130 	    4.0000 	   40.0000 	   10.8592 
    3.0594 	   16.9440 	    4.0000 	   40.0000 	   10.8902 
    2.9984 	   16.9790 	    4.0000 	   40.0000 	   10.9252 
    2.9374 	   17.0100 	    4.0000 	   40.0000 	   10.9562 
    3.0137 	   17.0420 	    4.0000 	   40.0000 	   10.9882 
    2.9679 	   17.0790 	    4.0000 	   40.0000 	   11.0252 
    3.0900 	   17.1080 	    4.0000 	   40.0000 	   11.0542 
    3.0594 	   17.1390 	    4.0000 	   40.0000 	   11.0852 
    3.0594 	   17.1680 	    4.0000 	   40.0000 	   11.1142 
    2.9679 	   17.1960 	    4.0000 	   40.0000 	   11.1422 
    3.1357 	   17.2260 	    4.0000 	   40.0000 	   11.1722 
    2.9526 	   17.2540 	    4.0000 	   40.0000 	   11.2002 
    3.0289 	   17.2870 	    4.0000 	   40.0000 	   11.2332 
    3.0137 	   17.3160 	    4.0000 	   40.0000 	   11.2623 
    3.0594 	   17.3430 	    4.0000 	   40.0000 	   11.2893 
    3.0747 	   17.3710 	    4.0000 	   40.0000 	   11.3173 
    2.8305 	   17.4030 	    4.0000 	   40.0000 	   11.3493 
    2.9374 	   17.4340 	    4.0000 	   40.0000 	   11.3803 
    2.9374 	   17.4660 	    4.0000 	   40.0000 	   11.4123 
    3.0594 	   17.4970 	    4.0000 	   40.0000 	   11.4433 
    3.0747 	   17.5300 	    4.0000 	   40.0000 	   11.4763 
    2.9679 	   17.5620 	    4.0000 	   40.0000 	   11.5083 
    2.9374 	   17.5990 	    4.0000 	   40.0000 	   11.5453 
    3.1815 	   17.6320 	    4.0000 	   40.0000 	   11.5783 
    2.9374 	   17.6640 	    4.0000 	   40.0000 	   11.6103 
    3.1815 	   17.6970 	    4.0000 	   40.0000 	   11.6433 
    3.0137 	   17.7290 	    4.0000 	   40.0000 	   11.6753 
    3.0747 	   17.7620 	    4.0000 	   40.0000 	   11.7083 
    3.0442 	   17.7940 	    4.0000 	   40.0000 	   11.7403 
    2.8305 	   17.8320 	    4.0000 	   40.0000 	   11.7783 
    2.9984 	   17.8640 	    4.0000 	   40.0000 	   11.8103 
    3.1205 	   17.8970 	    4.0000 	   40.0000 	   11.8433 
    3.0594 	   17.9280 	    4.0000 	   40.0000 	   11.8743 
    3.0442 	   17.9570 	    4.0000 	   40.0000 	   11.9033 
    3.1205 	   17.9890 	    4.0000 	   40.0000 	   11.9353 
    3.2578 	   18.0210 	    4.0000 	   40.0000 	   11.9673 
    3.0594 	   18.0520 	    4.0000 	   40.0000 	   11.9983 
    3.0442 	   18.1130 	    4.0000 	   40.0000 	   12.0593 
    2.9831 	   18.1430 	    4.0000 	   40.0000 	   12.0893 
    3.1815 	   18.1730 	    4.0000 	   40.0000 	   12.1193 
    3.2425 	   18.2010 	    4.0000 	   40.0000 	   12.1473 
    3.0594 	   18.2280 	    4.0000 	   40.0000 	   12.1743 
    3.0747 	   18.2560 	    4.0000 	   40.0000 	   12.2013 
    3.1968 	   18.2820 	    4.0000 	   40.0000 	   12.2283 
    3.0900 	   18.3110 	    4.0000 	   40.0000 	   12.2573 
    3.1968 	   18.3380 	    4.0000 	   40.0000 	   12.2843 
    3.1052 	   18.3680 	    4.0000 	   40.0000 	   12.3143 
    3.3341 	   18.3990 	    4.0000 	   40.0000 	   12.3453 
    3.1662 	   18.4310 	    4.0000 	   40.0000 	   12.3773 
    3.2883 	   18.4680 	    4.0000 	   40.0000 	   12.4143 
    3.1510 	   18.4990 	    4.0000 	   40.0000 	   12.4453 
    3.2578 	   18.5310 	    4.0000 	   40.0000 	   12.4773 
    3.1510 	   18.5640 	    4.0000 	   40.0000 	   12.5103 
    3.2120 	   18.5990 	    4.0000 	   40.0000 	   12.5453 
    3.3341 	   18.6340 	    4.0000 	   40.0000 	   12.5803 
    3.3188 	   18.6660 	    4.0000 	   40.0000 	   12.6123 
    3.1662 	   18.6990 	    4.0000 	   40.0000 	   12.6453 
    3.1968 	   18.7300 	    4.0000 	   40.0000 	   12.6763 
    3.4104 	   18.7640 	    4.0000 	   40.0000 	   12.7103 
    3.3188 	   18.7960 	    4.0000 	   40.0000 	   12.7423 
    3.1968 	   18.8320 	    4.0000 	   40.0000 	   12.7783 
    3.2273 	   18.8650 	    4.0000 	   40.0000 	   12.8113 
    3.3036 	   18.8970 	    4.0000 	   40.0000 	   12.8433 
    3.3646 	   18.9300 	    4.0000 	   40.0000 	   12.8763 
    3.1968 	   18.9640 	    4.0000 	   40.0000 	   12.9103 
    3.2120 	   19.0010 	    4.0000 	   40.0000 	   12.9473 
    3.3188 	   19.0340 	    4.0000 	   40.0000 	   12.9803 
    3.1968 	   19.0700 	    4.0000 	   40.0000 	   13.0164 
    3.2731 	   19.1010 	    4.0000 	   40.0000 	   13.0474 
    3.4867 	   19.1290 	    4.0000 	   40.0000 	   13.0754 
    3.1815 	   19.1620 	    4.0000 	   40.0000 	   13.1084 
    3.3951 	   19.1920 	    4.0000 	   40.0000 	   13.1384 
    3.2273 	   19.2230 	    4.0000 	   40.0000 	   13.1694 
    3.2273 	   19.2530 	    4.0000 	   40.0000 	   13.1994 
    2.9374 	   19.2810 	    4.0000 	   40.0000 	   13.2274 
    3.4257 	   19.3120 	    4.0000 	   40.0000 	   13.2584 
    3.1815 	   19.3390 	    4.0000 	   40.0000 	   13.2854 
    3.0900 	   19.3680 	    4.0000 	   40.0000 	   13.3144 
    3.1968 	   19.4000 	    4.0000 	   40.0000 	   13.3464 
    3.2731 	   19.4340 	    4.0000 	   40.0000 	   13.3804 
    3.4409 	   19.4660 	    4.0000 	   40.0000 	   13.4124 
    3.3799 	   19.4990 	    4.0000 	   40.0000 	   13.4454 
    3.3341 	   19.5310 	    4.0000 	   40.0000 	   13.4774 
    3.4257 	   19.5630 	    4.0000 	   40.0000 	   13.5094 
    2.9679 	   19.5990 	    4.0000 	   40.0000 	   13.5454 
    3.3646 	   19.6320 	    4.0000 	   40.0000 	   13.5784 
    3.2425 	   19.6650 	    4.0000 	   40.0000 	   13.6114 
    3.3188 	   19.6980 	    4.0000 	   40.0000 	   13.6444 
    3.2273 	   19.7330 	    4.0000 	   40.0000 	   13.6794 
    3.1662 	   19.7660 	    4.0000 	   40.0000 	   13.7124 
    3.4562 	   19.7990 	    4.0000 	   40.0000 	   13.7454 
    3.4714 	   19.8310 	    4.0000 	   40.0000 	   13.7774 
    3.3951 	   19.8630 	    4.0000 	   40.0000 	   13.8094 
    3.3646 	   19.8960 	    4.0000 	   40.0000 	   13.8424 
    3.3188 	   19.9290 	    4.0000 	   40.0000 	   13.8754 
    3.3646 	   19.9600 	    4.0000 	   40.0000 	   13.9064 
    3.3494 	   19.9920 	    4.0000 	   40.0000 	   13.9384 
    3.3799 	   20.0270 	    4.0000 	   40.0000 	   13.9734 
    3.4104 	   20.0590 	    4.0000 	   40.0000 	   14.0054 
    3.4409 	   20.0960 	    4.0000 	   40.0000 	   14.0424 
    3.4104 	   20.1270 	    4.0000 	   40.0000 	   14.0734 
    3.4867 	   20.1580 	    4.0000 	   40.0000 	   14.1044 
    3.2273 	   20.1880 	    4.0000 	   40.0000 	   14.1344 
    3.3799 	   20.2160 	    4.0000 	   40.0000 	   14.1624 
    3.3188 	   20.2430 	    4.0000 	   40.0000 	   14.1894 
    3.3036 	   20.2730 	    4.0000 	   40.0000 	   14.2194 
    3.5935 	   20.3020 	    4.0000 	   40.0000 	   14.2484 
    3.5477 	   20.3300 	    4.0000 	   40.0000 	   14.2764 
    3.5019 	   20.3590 	    4.0000 	   40.0000 	   14.3054 
    3.4867 	   20.3890 	    4.0000 	   40.0000 	   14.3354 
    3.5019 	   20.4160 	    4.0000 	   40.0000 	   14.3624 
    3.6851 	   20.4440 	    4.0000 	   40.0000 	   14.3904 
    3.5477 	   20.4720 	    4.0000 	   40.0000 	   14.4184 
    3.5019 	   20.5050 	    4.0000 	   40.0000 	   14.4514 
    3.6698 	   20.5380 	    4.0000 	   40.0000 	   14.4844 
    3.5325 	   20.5730 	    4.0000 	   40.0000 	   14.5194 
    3.4409 	   20.6040 	    4.0000 	   40.0000 	   14.5504 
    3.5325 	   20.6370 	    4.0000 	   40.0000 	   14.5834 
    3.6240 	   20.6700 	    4.0000 	   40.0000 	   14.6164 
    3.5477 	   20.7000 	    4.0000 	   40.0000 	   14.6464 
    3.5630 	   20.7350 	    4.0000 	   40.0000 	   14.6814 
    3.5019 	   20.7630 	    4.0000 	   40.0000 	   14.7084 
    3.5630 	   20.7950 	    4.0000 	   40.0000 	   14.7414 
    3.3341 	   20.8280 	    4.0000 	   40.0000 	   14.7745 
    3.5477 	   20.8620 	    4.0000 	   40.0000 	   14.8085 
    3.5019 	   20.8950 	    4.0000 	   40.0000 	   14.8415 
    3.5935 	   20.9290 	    4.0000 	   40.0000 	   14.8755 
    3.5782 	   20.9610 	    4.0000 	   40.0000 	   14.9075 
    3.5782 	   20.9900 	    4.0000 	   40.0000 	   14.9365 
    3.5325 	   21.0270 	    4.0000 	   40.0000 	   14.9725 
    3.4257 	   21.0600 	    4.0000 	   40.0000 	   15.0065 
    3.6240 	   21.0980 	    4.0000 	   40.0000 	   15.0445 
    3.8529 	   21.1320 	    4.0000 	   40.0000 	   15.0785 
    3.5477 	   21.1630 	    4.0000 	   40.0000 	   15.1095 
    3.5935 	   21.1960 	    4.0000 	   40.0000 	   15.1425 
    3.5630 	   21.2250 	    4.0000 	   40.0000 	   15.1715 
    3.6851 	   21.2560 	    4.0000 	   40.0000 	   15.2025 
    3.5935 	   21.2860 	    4.0000 	   40.0000 	   15.2325 
    3.7156 	   21.3150 	    4.0000 	   40.0000 	   15.2615 
    3.5172 	   21.3440 	    4.0000 	   40.0000 	   15.2905 
    3.6393 	   21.3720 	    4.0000 	   40.0000 	   15.3185 
    3.5325 	   21.4010 	    4.0000 	   40.0000 	   15.3475 
    3.5782 	   21.4340 	    4.0000 	   40.0000 	   15.3805 
    3.7919 	   21.4660 	    4.0000 	   40.0000 	   15.4125 
    3.6088 	   21.4990 	    4.0000 	   40.0000 	   15.4455 
    3.5477 	   21.5320 	    4.0000 	   40.0000 	   15.4785 
    3.5172 	   21.5670 	    4.0000 	   40.0000 	   15.5135 
    3.6851 	   21.6020 	    4.0000 	   40.0000 	   15.5485 
    3.8834 	   21.6320 	    4.0000 	   40.0000 	   15.5785 
    3.7919 	   21.6660 	    4.0000 	   40.0000 	   15.6125 
    3.6240 	   21.7000 	    4.0000 	   40.0000 	   15.6465 
    3.7308 	   21.7330 	    4.0000 	   40.0000 	   15.6795 
    3.7766 	   21.7660 	    4.0000 	   40.0000 	   15.7125 
    3.8376 	   21.7990 	    4.0000 	   40.0000 	   15.7455 
    3.7919 	   21.8330 	    4.0000 	   40.0000 	   15.7795 
    3.6851 	   21.8670 	    4.0000 	   40.0000 	   15.8135 
    3.6393 	   21.8990 	    4.0000 	   40.0000 	   15.8455 
    3.7308 	   21.9320 	    4.0000 	   40.0000 	   15.8785 
    3.8529 	   21.9650 	    4.0000 	   40.0000 	   15.9115 
    4.0208 	   21.9980 	    4.0000 	   40.0000 	   15.9445 
    3.7919 	   22.0310 	    4.0000 	   40.0000 	   15.9775 
    3.5477 	   22.0650 	    4.0000 	   40.0000 	   16.0115 
    3.5935 	   22.1020 	    4.0000 	   40.0000 	   16.0485 
    3.7613 	   22.1360 	    4.0000 	   40.0000 	   16.0825 
    3.8071 	   22.1660 	    4.0000 	   40.0000 	   16.1125 
    3.8071 	   22.1990 	    4.0000 	   40.0000 	   16.1455 
    3.7003 	   22.2310 	    4.0000 	   40.0000 	   16.1775 
    3.8071 	   22.2590 	    4.0000 	   40.0000 	   16.2055 
    3.8224 	   22.2890 	    4.0000 	   40.0000 	   16.2355 
    3.8682 	   22.3180 	    4.0000 	   40.0000 	   16.2645 
    3.9292 	   22.3490 	    4.0000 	   40.0000 	   16.2955 
    3.7919 	   22.3820 	    4.0000 	   40.0000 	   16.3285 
    3.7919 	   22.4150 	    4.0000 	   40.0000 	   16.3615 
    3.8071 	   22.4470 	    4.0000 	   40.0000 	   16.3935 
    4.0360 	   22.4800 	    4.0000 	   40.0000 	   16.4265 
    3.8834 	   22.5120 	    4.0000 	   40.0000 	   16.4585 
    3.8682 	   22.5430 	    4.0000 	   40.0000 	   16.4895 
    3.8529 	   22.5800 	    4.0000 	   40.0000 	   16.5266 
    3.4714 	   22.6120 	    4.0000 	   40.0000 	   16.5586 
    3.9597 	   22.6430 	    4.0000 	   40.0000 	   16.5896 
    3.7461 	   22.6760 	    4.0000 	   40.0000 	   16.6226 
    3.9597 	   22.7090 	    4.0000 	   40.0000 	   16.6556 
    3.8071 	   22.7420 	    4.0000 	   40.0000 	   16.6886 
    3.9597 	   22.7740 	    4.0000 	   40.0000 	   16.7206 
    3.8376 	   22.8080 	    4.0000 	   40.0000 	   16.7546 
    3.9750 	   22.8410 	    4.0000 	   40.0000 	   16.7876 
    3.9139 	   22.8750 	    4.0000 	   40.0000 	   16.8216 
    3.9139 	   22.9080 	    4.0000 	   40.0000 	   16.8546 
    3.8682 	   22.9400 	    4.0000 	   40.0000 	   16.8866 
    3.9902 	   22.9720 	    4.0000 	   40.0000 	   16.9186 
    3.9445 	   23.0050 	    4.0000 	   40.0000 	   16.9516 
    4.0055 	   23.0370 	    4.0000 	   40.0000 	   16.9836 
    4.0055 	   23.0730 	    4.0000 	   40.0000 	   17.0196 
    3.7003 	   23.1040 	    4.0000 	   40.0000 	   17.0506 
    4.0360 	   23.1370 	    4.0000 	   40.0000 	   17.0836 
    3.9902 	   23.1660 	    4.0000 	   40.0000 	   17.1126 
    3.9139 	   23.1990 	    4.0000 	   40.0000 	   17.1456 
    3.9902 	   23.2290 	    4.0000 	   40.0000 	   17.1756 
    4.1123 	   23.2580 	    4.0000 	   40.0000 	   17.2046 
    3.9750 	   23.2890 	    4.0000 	   40.0000 	   17.2356 
    4.0818 	   23.3200 	    4.0000 	   40.0000 	   17.2666 
    3.9292 	   23.3480 	    4.0000 	   40.0000 	   17.2946 
    4.0513 	   23.3760 	    4.0000 	   40.0000 	   17.3226 
    4.0818 	   23.4090 	    4.0000 	   40.0000 	   17.3556 
    3.9292 	   23.4420 	    4.0000 	   40.0000 	   17.3886 
    4.0360 	   23.4770 	    4.0000 	   40.0000 	   17.4236 
    4.0055 	   23.5120 	    4.0000 	   40.0000 	   17.4586 
    3.9597 	   23.5450 	    4.0000 	   40.0000 	   17.4916 
    3.9902 	   23.5820 	    4.0000 	   40.0000 	   17.5286 
    4.0665 	   23.6130 	    4.0000 	   40.0000 	   17.5596 
    3.9445 	   23.6450 	    4.0000 	   40.0000 	   17.5916 
    3.9597 	   23.6790 	    4.0000 	   40.0000 	   17.6256 
    3.9750 	   23.7110 	    4.0000 	   40.0000 	   17.6576 
    4.1428 	   23.7430 	    4.0000 	   40.0000 	   17.6896 
    4.1886 	   23.7780 	    4.0000 	   40.0000 	   17.7246 
    4.0513 	   23.8120 	    4.0000 	   40.0000 	   17.7586 
    4.0055 	   23.8450 	    4.0000 	   40.0000 	   17.7916 
    4.1276 	   23.8780 	    4.0000 	   40.0000 	   17.8246 
    3.8529 	   23.9110 	    4.0000 	   40.0000 	   17.8576 
    4.1123 	   23.9440 	    4.0000 	   40.0000 	   17.8906 
    4.2496 	   23.9770 	    4.0000 	   40.0000 	   17.9236 
    4.2496 	   24.0120 	    4.0000 	   40.0000 	   17.9586 
    4.2191 	   24.0470 	    4.0000 	   40.0000 	   17.9936 
    4.1428 	   24.0820 	    4.0000 	   40.0000 	   18.0286 
    4.0665 	   24.1160 	    4.0000 	   40.0000 	   18.0626 
    4.1886 	   24.1480 	    4.0000 	   40.0000 	   18.0946 
    4.2496 	   24.1790 	    4.0000 	   40.0000 	   18.1256 
    4.2496 	   24.2100 	    4.0000 	   40.0000 	   18.1566 
    3.9902 	   24.2400 	    4.0000 	   40.0000 	   18.1866 
    4.1276 	   24.2690 	    4.0000 	   40.0000 	   18.2156 
    4.1276 	   24.2970 	    4.0000 	   40.0000 	   18.2436 
    4.2039 	   24.3250 	    4.0000 	   40.0000 	   18.2717 
    4.2344 	   24.3540 	    4.0000 	   40.0000 	   18.3007 
    4.0360 	   24.3820 	    4.0000 	   40.0000 	   18.3287 
    4.1733 	   24.4110 	    4.0000 	   40.0000 	   18.3577 
    4.2496 	   24.4400 	    4.0000 	   40.0000 	   18.3867 
    4.1276 	   24.4690 	    4.0000 	   40.0000 	   18.4157 
    4.3412 	   24.4990 	    4.0000 	   40.0000 	   18.4457 
    4.3412 	   24.5310 	    4.0000 	   40.0000 	   18.4777 
    4.2496 	   24.5670 	    4.0000 	   40.0000 	   18.5137 
    4.2039 	   24.6030 	    4.0000 	   40.0000 	   18.5497 
    4.0055 	   24.6360 	    4.0000 	   40.0000 	   18.5827 
    4.1886 	   24.6680 	    4.0000 	   40.0000 	   18.6147 
    4.2039 	   24.7000 	    4.0000 	   40.0000 	   18.6467 
    4.2496 	   24.7320 	    4.0000 	   40.0000 	   18.6787 
    4.4327 	   24.7630 	    4.0000 	   40.0000 	   18.7097 
    4.1733 	   24.7960 	    4.0000 	   40.0000 	   18.7427 
    4.2954 	   24.8320 	    4.0000 	   40.0000 	   18.7787 
    4.3565 	   24.8650 	    4.0000 	   40.0000 	   18.8117 
    4.4480 	   24.8970 	    4.0000 	   40.0000 	   18.8437 
    4.3259 	   24.9280 	    4.0000 	   40.0000 	   18.8747 
    4.3565 	   24.9600 	    4.0000 	   40.0000 	   18.9067 
    4.2649 	   24.9930 	    4.0000 	   40.0000 	   18.9397 
    4.3565 	   25.0290 	    4.0000 	   40.0000 	   18.9757 
    4.4480 	   25.0600 	    4.0000 	   40.0000 	   19.0067 
    4.4022 	   25.0990 	    4.0000 	   40.0000 	   19.0457 
    4.4633 	   25.1320 	    4.0000 	   40.0000 	   19.0787 
    4.4938 	   25.1640 	    4.0000 	   40.0000 	   19.1107 
    4.3717 	   25.1940 	    4.0000 	   40.0000 	   19.1407 
    4.4785 	   25.2250 	    4.0000 	   40.0000 	   19.1717 
    4.4633 	   25.2550 	    4.0000 	   40.0000 	   19.2017 
    4.5396 	   25.2850 	    4.0000 	   40.0000 	   19.2317 
    4.4633 	   25.3170 	    4.0000 	   40.0000 	   19.2637 
    4.3259 	   25.3500 	    4.0000 	   40.0000 	   19.2967 
    4.3717 	   25.3790 	    4.0000 	   40.0000 	   19.3257 
    4.3259 	   25.4100 	    4.0000 	   40.0000 	   19.3567 
    4.4022 	   25.4410 	    4.0000 	   40.0000 	   19.3877 
    4.2496 	   25.4730 	    4.0000 	   40.0000 	   19.4197 
    4.1886 	   25.5070 	    4.0000 	   40.0000 	   19.4537 
    4.1123 	   25.5420 	    4.0000 	   40.0000 	   19.4887 
    4.0818 	   25.5810 	    4.0000 	   40.0000 	   19.5277 
    4.0055 	   25.6160 	    4.0000 	   40.0000 	   19.5627 
    4.0055 	   25.6500 	    4.0000 	   40.0000 	   19.5967 
    4.0055 	   25.6840 	    4.0000 	   40.0000 	   19.6307 
    3.9597 	   25.7210 	    4.0000 	   40.0000 	   19.6677 
    3.9139 	   25.7540 	    4.0000 	   40.0000 	   19.7007 
    3.7461 	   25.7880 	    4.0000 	   40.0000 	   19.7347 
    3.8071 	   25.8230 	    4.0000 	   40.0000 	   19.7697 
    3.7613 	   25.8550 	    4.0000 	   40.0000 	   19.8017 
    3.9292 	   25.8850 	    4.0000 	   40.0000 	   19.8317 
    3.8071 	   25.9170 	    4.0000 	   40.0000 	   19.8637 
    3.8529 	   25.9490 	    4.0000 	   40.0000 	   19.8957 
    3.7156 	   25.9790 	    4.0000 	   40.0000 	   19.9257 
    3.6545 	   26.0100 	    4.0000 	   40.0000 	   19.9567 
    3.6393 	   26.0460 	    4.0000 	   40.0000 	   19.9928 
    3.7003 	   26.0830 	    4.0000 	   40.0000 	   20.0298 
    3.5630 	   26.1180 	    4.0000 	   40.0000 	   20.0648 
    3.5935 	   26.1530 	    4.0000 	   40.0000 	   20.0998 
    3.5325 	   26.1830 	    4.0000 	   40.0000 	   20.1298 
    3.6698 	   26.2140 	    4.0000 	   40.0000 	   20.1608 
    3.5935 	   26.2470 	    4.0000 	   40.0000 	   20.1938 
    3.5325 	   26.2780 	    4.0000 	   40.0000 	   20.2248 
    3.4562 	   26.3080 	    4.0000 	   40.0000 	   20.2548 
    3.4562 	   26.3370 	    4.0000 	   40.0000 	   20.2838 
    3.6240 	   26.3660 	    4.0000 	   40.0000 	   20.3128 
    3.6088 	   26.3930 	    4.0000 	   40.0000 	   20.3398 
    3.4714 	   26.4210 	    4.0000 	   40.0000 	   20.3678 
    3.6088 	   26.4500 	    4.0000 	   40.0000 	   20.3968 
    3.4714 	   26.4810 	    4.0000 	   40.0000 	   20.4278 
    3.4257 	   26.5130 	    4.0000 	   40.0000 	   20.4598 
    3.4257 	   26.5470 	    4.0000 	   40.0000 	   20.4938 
    3.4104 	   26.5840 	    4.0000 	   40.0000 	   20.5308 
    3.3646 	   26.6140 	    4.0000 	   40.0000 	   20.5608 
    3.2731 	   26.6440 	    4.0000 	   40.0000 	   20.5908 
    3.2578 	   26.6730 	    4.0000 	   40.0000 	   20.6198 
    3.3494 	   26.7020 	    4.0000 	   40.0000 	   20.6488 
    3.4257 	   26.7320 	    4.0000 	   40.0000 	   20.6788 
    3.2883 	   26.7600 	    4.0000 	   40.0000 	   20.7068 
    3.2731 	   26.7940 	    4.0000 	   40.0000 	   20.7408 
    3.3036 	   26.8280 	    4.0000 	   40.0000 	   20.7748 
    3.5477 	   26.8610 	    4.0000 	   40.0000 	   20.8078 
    3.2731 	   26.8930 	    4.0000 	   40.0000 	   20.8398 
    3.3188 	   26.9260 	    4.0000 	   40.0000 	   20.8728 
    3.3188 	   26.9600 	    4.0000 	   40.0000 	   20.9068 
    3.2120 	   26.9930 	    4.0000 	   40.0000 	   20.9398 
    3.1815 	   27.0270 	    4.0000 	   40.0000 	   20.9738 
    3.1815 	   27.0590 	    4.0000 	   40.0000 	   21.0058 
    3.0900 	   27.0980 	    4.0000 	   40.0000 	   21.0448 
    3.3188 	   27.1330 	    4.0000 	   40.0000 	   21.0798 
    3.1968 	   27.1640 	    4.0000 	   40.0000 	   21.1108 
    3.0747 	   27.1950 	    4.0000 	   40.0000 	   21.1418 
    2.9374 	   27.2260 	    4.0000 	   40.0000 	   21.1728 
    3.3036 	   27.2570 	    4.0000 	   40.0000 	   21.2038 
    3.0900 	   27.2870 	    4.0000 	   40.0000 	   21.2338 
    3.1510 	   27.3160 	    4.0000 	   40.0000 	   21.2628 
    3.1357 	   27.3460 	    4.0000 	   40.0000 	   21.2928 
    3.0594 	   27.3760 	    4.0000 	   40.0000 	   21.3228 
    3.1205 	   27.4070 	    4.0000 	   40.0000 	   21.3538 
    2.9984 	   27.4390 	    4.0000 	   40.0000 	   21.3858 
    3.0594 	   27.4720 	    4.0000 	   40.0000 	   21.4188 
    2.9526 	   27.5080 	    4.0000 	   40.0000 	   21.4548 
    3.0747 	   27.5400 	    4.0000 	   40.0000 	   21.4868 
    3.0289 	   27.5780 	    4.0000 	   40.0000 	   21.5248 
    3.1815 	   27.6130 	    4.0000 	   40.0000 	   21.5598 
    2.9984 	   27.6480 	    4.0000 	   40.0000 	   21.5948 
    2.7390 	   27.6810 	    4.0000 	   40.0000 	   21.6278 
    2.8153 	   27.7150 	    4.0000 	   40.0000 	   21.6618 
    2.9221 	   27.7490 	    4.0000 	   40.0000 	   21.6958 
    2.7085 	   27.7820 	    4.0000 	   40.0000 	   21.7288 
    3.0289 	   27.8130 	    4.0000 	   40.0000 	   21.7598 
    2.9679 	   27.8470 	    4.0000 	   40.0000 	   21.7939 
    2.9679 	   27.8810 	    4.0000 	   40.0000 	   21.8279 
    2.8153 	   27.9120 	    4.0000 	   40.0000 	   21.8589 
    2.8763 	   27.9470 	    4.0000 	   40.0000 	   21.8939 
    3.0137 	   27.9820 	    4.0000 	   40.0000 	   21.9289 
    2.8611 	   28.0150 	    4.0000 	   40.0000 	   21.9619 
    2.8763 	   28.0470 	    4.0000 	   40.0000 	   21.9939 
    2.9374 	   28.0850 	    4.0000 	   40.0000 	   22.0319 
    2.9068 	   28.1180 	    4.0000 	   40.0000 	   22.0649 
    2.9526 	   28.1500 	    4.0000 	   40.0000 	   22.0969 
    2.7848 	   28.1820 	    4.0000 	   40.0000 	   22.1289 
    2.8000 	   28.2120 	    4.0000 	   40.0000 	   22.1589 
    2.8305 	   28.2430 	    4.0000 	   40.0000 	   22.1899 
    2.7695 	   28.2730 	    4.0000 	   40.0000 	   22.2199 
    2.6932 	   28.3030 	    4.0000 	   40.0000 	   22.2499 
    2.9526 	   28.3350 	    4.0000 	   40.0000 	   22.2819 
    2.7543 	   28.3640 	    4.0000 	   40.0000 	   22.3109 
    2.8763 	   28.3920 	    4.0000 	   40.0000 	   22.3389 
    2.8000 	   28.4210 	    4.0000 	   40.0000 	   22.3679 
    2.8153 	   28.4520 	    4.0000 	   40.0000 	   22.3989 
    2.9526 	   28.4840 	    4.0000 	   40.0000 	   22.4309 
    2.8000 	   28.5170 	    4.0000 	   40.0000 	   22.4639 
    2.8611 	   28.5490 	    4.0000 	   40.0000 	   22.4959 
    2.8305 	   28.5850 	    4.0000 	   40.0000 	   22.5319 
    2.8458 	   28.6190 	    4.0000 	   40.0000 	   22.5659 
    2.8153 	   28.6530 	    4.0000 	   40.0000 	   22.5999 
    2.6474 	   28.6870 	    4.0000 	   40.0000 	   22.6339 
    2.6932 	   28.7210 	    4.0000 	   40.0000 	   22.6679 
    2.6169 	   28.7540 	    4.0000 	   40.0000 	   22.7009 
    2.6169 	   28.7870 	    4.0000 	   40.0000 	   22.7339 
    2.7695 	   28.8190 	    4.0000 	   40.0000 	   22.7659 
    2.6780 	   28.8520 	    4.0000 	   40.0000 	   22.7989 
    2.7085 	   28.8860 	    4.0000 	   40.0000 	   22.8329 
    2.6322 	   28.9190 	    4.0000 	   40.0000 	   22.8659 
    2.6780 	   28.9530 	    4.0000 	   40.0000 	   22.8999 
    2.6322 	   28.9860 	    4.0000 	   40.0000 	   22.9329 
    2.6322 	   29.0190 	    4.0000 	   40.0000 	   22.9659 
    2.7237 	   29.0520 	    4.0000 	   40.0000 	   22.9989 
    2.5101 	   29.0890 	    4.0000 	   40.0000 	   23.0359 
    2.5864 	   29.1190 	    4.0000 	   40.0000 	   23.0659 
    2.6322 	   29.1520 	    4.0000 	   40.0000 	   23.0989 
    2.5711 	   29.1820 	    4.0000 	   40.0000 	   23.1289 
    2.5864 	   29.2140 	    4.0000 	   40.0000 	   23.1609 
    2.5559 	   29.2450 	    4.0000 	   40.0000 	   23.1919 
    2.6780 	   29.2770 	    4.0000 	   40.0000 	   23.2239 
    2.5559 	   29.3080 	    4.0000 	   40.0000 	   23.2549 
    2.5254 	   29.3370 	    4.0000 	   40.0000 	   23.2839 
    2.5406 	   29.3680 	    4.0000 	   40.0000 	   23.3149 
    2.4796 	   29.3990 	    4.0000 	   40.0000 	   23.3459 
    2.5254 	   29.4320 	    4.0000 	   40.0000 	   23.3789 
    2.4186 	   29.4650 	    4.0000 	   40.0000 	   23.4119 
    2.5254 	   29.4980 	    4.0000 	   40.0000 	   23.4449 
    2.5101 	   29.5320 	    4.0000 	   40.0000 	   23.4789 
    2.4491 	   29.5650 	    4.0000 	   40.0000 	   23.5120 
    2.5101 	   29.6010 	    4.0000 	   40.0000 	   23.5480 
    2.5101 	   29.6300 	    4.0000 	   40.0000 	   23.5770 
    2.3728 	   29.6600 	    4.0000 	   40.0000 	   23.6070 
    2.3117 	   29.6900 	    4.0000 	   40.0000 	   23.6370 
    2.4796 	   29.7200 	    4.0000 	   40.0000 	   23.6670 
    2.5559 	   29.7500 	    4.0000 	   40.0000 	   23.6970 
    2.3880 	   29.7800 	    4.0000 	   40.0000 	   23.7270 
    2.3423 	   29.8110 	    4.0000 	   40.0000 	   23.7580 
    2.5559 	   29.8410 	    4.0000 	   40.0000 	   23.7880 
    2.4186 	   29.8700 	    4.0000 	   40.0000 	   23.8170 
    2.3728 	   29.9030 	    4.0000 	   40.0000 	   23.8500 
    2.4033 	   29.9340 	    4.0000 	   40.0000 	   23.8810 
    2.5254 	   29.9640 	    4.0000 	   40.0000 	   23.9110 
    2.3423 	   29.9930 	    4.0000 	   40.0000 	   23.9400 
    2.3880 	   30.0240 	    4.0000 	   40.0000 	   23.9710 
    2.5406 	   30.0550 	    4.0000 	   40.0000 	   24.0020 
    2.4186 	   30.0890 	    4.0000 	   40.0000 	   24.0360 
    2.4338 	   30.1220 	    4.0000 	   40.0000 	   24.0690 
    2.3880 	   30.1530 	    4.0000 	   40.0000 	   24.1000 
    2.4948 	   30.1820 	    4.0000 	   40.0000 	   24.1290 
    2.4186 	   30.2120 	    4.0000 	   40.0000 	   24.1590 
    2.3728 	   30.2430 	    4.0000 	   40.0000 	   24.1900 
    2.4948 	   30.2730 	    4.0000 	   40.0000 	   24.2200 
    2.3117 	   30.3040 	    4.0000 	   40.0000 	   24.2510 
    2.3117 	   30.3370 	    4.0000 	   40.0000 	   24.2840 
    2.1897 	   30.3670 	    4.0000 	   40.0000 	   24.3140 
    2.1897 	   30.3950 	    4.0000 	   40.0000 	   24.3420 
    2.2354 	   30.4240 	    4.0000 	   40.0000 	   24.3710 
    2.3423 	   30.4570 	    4.0000 	   40.0000 	   24.4040 
    1.9913 	   30.4890 	    4.0000 	   40.0000 	   24.4360 
    2.3728 	   30.5220 	    4.0000 	   40.0000 	   24.4690 
    2.2965 	   30.5550 	    4.0000 	   40.0000 	   24.5020 
    2.4338 	   30.5890 	    4.0000 	   40.0000 	   24.5360 
    2.4186 	   30.6220 	    4.0000 	   40.0000 	   24.5690 
    2.1439 	   30.6560 	    4.0000 	   40.0000 	   24.6030 
    2.2660 	   30.6900 	    4.0000 	   40.0000 	   24.6370 
    2.0218 	   30.7240 	    4.0000 	   40.0000 	   24.6710 
    2.3728 	   30.7570 	    4.0000 	   40.0000 	   24.7040 
    2.2660 	   30.7890 	    4.0000 	   40.0000 	   24.7360 
    2.2049 	   30.8220 	    4.0000 	   40.0000 	   24.7690 
    2.1744 	   30.8550 	    4.0000 	   40.0000 	   24.8020 
    2.3423 	   30.8900 	    4.0000 	   40.0000 	   24.8370 
    2.3728 	   30.9260 	    4.0000 	   40.0000 	   24.8720 
    2.2049 	   30.9610 	    4.0000 	   40.0000 	   24.9070 
    2.2354 	   30.9950 	    4.0000 	   40.0000 	   24.9410 
    2.2202 	   31.0290 	    4.0000 	   40.0000 	   24.9750 
    2.2660 	   31.0610 	    4.0000 	   40.0000 	   25.0070 
    2.2049 	   31.1000 	    4.0000 	   40.0000 	   25.0460 
    2.1134 	   31.1350 	    4.0000 	   40.0000 	   25.0810 
    2.2660 	   31.1640 	    4.0000 	   40.0000 	   25.1100 
    2.2049 	   31.1970 	    4.0000 	   40.0000 	   25.1430 
    2.2354 	   31.2280 	    4.0000 	   40.0000 	   25.1740 
    2.1592 	   31.2580 	    4.0000 	   40.0000 	   25.2040 
    2.2049 	   31.2880 	    4.0000 	   40.0000 	   25.2340 
    2.2354 	   31.3170 	    4.0000 	   40.0000 	   25.2631 
    2.1439 	   31.3470 	    4.0000 	   40.0000 	   25.2931 
    2.0829 	   31.3770 	    4.0000 	   40.0000 	   25.3231 
    2.2354 	   31.4050 	    4.0000 	   40.0000 	   25.3511 
    2.1439 	   31.4340 	    4.0000 	   40.0000 	   25.3801 
    2.1286 	   31.4650 	    4.0000 	   40.0000 	   25.4111 
    2.2049 	   31.5000 	    4.0000 	   40.0000 	   25.4461 
    2.2202 	   31.5340 	    4.0000 	   40.0000 	   25.4801 
    2.2812 	   31.5670 	    4.0000 	   40.0000 	   25.5131 
    2.2812 	   31.6010 	    4.0000 	   40.0000 	   25.5471 
    2.1592 	   31.6350 	    4.0000 	   40.0000 	   25.5811 
    2.1286 	   31.6690 	    4.0000 	   40.0000 	   25.6151 
    2.1439 	   31.7020 	    4.0000 	   40.0000 	   25.6481 
    2.0829 	   31.7350 	    4.0000 	   40.0000 	   25.6811 
    2.0981 	   31.7690 	    4.0000 	   40.0000 	   25.7141 
    2.0066 	   31.8030 	    4.0000 	   40.0000 	   25.7491 
    2.1134 	   31.8360 	    4.0000 	   40.0000 	   25.7821 
    2.1592 	   31.8680 	    4.0000 	   40.0000 	   25.8141 
    2.2049 	   31.9010 	    4.0000 	   40.0000 	   25.8471 
    2.1286 	   31.9340 	    4.0000 	   40.0000 	   25.8801 
    2.0218 	   31.9670 	    4.0000 	   40.0000 	   25.9131 
    1.8540 	   32.0000 	    4.0000 	   40.0000 	   25.9461 
    2.1897 	   32.0340 	    4.0000 	   40.0000 	   25.9801 
    2.1134 	   32.0680 	    4.0000 	   40.0000 	   26.0141 
    2.1134 	   32.1070 	    4.0000 	   40.0000 	   26.0531 
    2.1134 	   32.1430 	    4.0000 	   40.0000 	   26.0891 
    1.7014 	   32.1780 	    4.0000 	   40.0000 	   26.1241 
    2.0676 	   32.2080 	    4.0000 	   40.0000 	   26.1531 
    2.0218 	   32.2390 	    4.0000 	   40.0000 	   26.1851 
    2.1134 	   32.2690 	    4.0000 	   40.0000 	   26.2151 
    1.9760 	   32.2990 	    4.0000 	   40.0000 	   26.2451 
    2.0981 	   32.3290 	    4.0000 	   40.0000 	   26.2751 
    2.1897 	   32.3590 	    4.0000 	   40.0000 	   26.3051 
    2.0218 	   32.3880 	    4.0000 	   40.0000 	   26.3341 
    1.9455 	   32.4170 	    4.0000 	   40.0000 	   26.3631 
    2.0066 	   32.4470 	    4.0000 	   40.0000 	   26.3931 
    1.9150 	   32.4800 	    4.0000 	   40.0000 	   26.4261 
    1.8235 	   32.5140 	    4.0000 	   40.0000 	   26.4601 
    2.0066 	   32.5470 	    4.0000 	   40.0000 	   26.4931 
    1.9303 	   32.5800 	    4.0000 	   40.0000 	   26.5261 
    2.0676 	   32.6130 	    4.0000 	   40.0000 	   26.5591 
    1.9608 	   32.6490 	    4.0000 	   40.0000 	   26.5951 
    2.0066 	   32.6830 	    4.0000 	   40.0000 	   26.6291 
    2.1134 	   32.7160 	    4.0000 	   40.0000 	   26.6621 
    1.9303 	   32.7490 	    4.0000 	   40.0000 	   26.6951 
    1.9608 	   32.7840 	    4.0000 	   40.0000 	   26.7301 
    1.9608 	   32.8180 	    4.0000 	   40.0000 	   26.7641 
    1.7624 	   32.8510 	    4.0000 	   40.0000 	   26.7971 
    1.9303 	   32.8850 	    4.0000 	   40.0000 	   26.8311 
    1.9303 	   32.9170 	    4.0000 	   40.0000 	   26.8631 
    2.0066 	   32.9510 	    4.0000 	   40.0000 	   26.8971 
    2.0829 	   32.9840 	    4.0000 	   40.0000 	   26.9301 
    1.9303 	   33.0160 	    4.0000 	   40.0000 	   26.9621 
    1.9760 	   33.0510 	    4.0000 	   40.0000 	   26.9972 
    1.9760 	   33.0830 	    4.0000 	   40.0000 	   27.0292 
    1.9150 	   33.1150 	    4.0000 	   40.0000 	   27.0612 
    1.9760 	   33.1460 	    4.0000 	   40.0000 	   27.0922 
    1.8235 	   33.1750 	    4.0000 	   40.0000 	   27.1212 
    1.8845 	   33.2060 	    4.0000 	   40.0000 	   27.1522 
    1.8997 	   33.2370 	    4.0000 	   40.0000 	   27.1832 
    1.8997 	   33.2670 	    4.0000 	   40.0000 	   27.2132 
    1.9150 	   33.2980 	    4.0000 	   40.0000 	   27.2442 
    1.7319 	   33.3290 	    4.0000 	   40.0000 	   27.2752 
    1.8692 	   33.3590 	    4.0000 	   40.0000 	   27.3052 
    1.9608 	   33.3900 	    4.0000 	   40.0000 	   27.3362 
    1.8692 	   33.4200 	    4.0000 	   40.0000 	   27.3662 
    1.9608 	   33.4500 	    4.0000 	   40.0000 	   27.3962 
    1.7624 	   33.4820 	    4.0000 	   40.0000 	   27.4282 
    2.0829 	   33.5180 	    4.0000 	   40.0000 	   27.4642 
    1.8540 	   33.5530 	    4.0000 	   40.0000 	   27.4992 
    1.8997 	   33.5860 	    4.0000 	   40.0000 	   27.5322 
    1.6556 	   33.6210 	    4.0000 	   40.0000 	   27.5672 
    1.9303 	   33.6570 	    4.0000 	   40.0000 	   27.6032 
    1.6861 	   33.6920 	    4.0000 	   40.0000 	   27.6382 
    1.9760 	   33.7260 	    4.0000 	   40.0000 	   27.6722 
    1.9608 	   33.7650 	    4.0000 	   40.0000 	   27.7112 
    1.8692 	   33.7980 	    4.0000 	   40.0000 	   27.7442 
    1.8387 	   33.8300 	    4.0000 	   40.0000 	   27.7762 
    1.8997 	   33.8630 	    4.0000 	   40.0000 	   27.8092 
    1.8082 	   33.8980 	    4.0000 	   40.0000 	   27.8442 
    1.8387 	   33.9320 	    4.0000 	   40.0000 	   27.8782 
    2.0066 	   33.9670 	    4.0000 	   40.0000 	   27.9132 
    1.8235 	   34.0020 	    4.0000 	   40.0000 	   27.9482 
    1.8387 	   34.0360 	    4.0000 	   40.0000 	   27.9822 
    1.9913 	   34.0740 	    4.0000 	   40.0000 	   28.0202 
    1.8845 	   34.1100 	    4.0000 	   40.0000 	   28.0562 
    1.8082 	   34.1460 	    4.0000 	   40.0000 	   28.0922 
    1.8387 	   34.1800 	    4.0000 	   40.0000 	   28.1262 
    1.7929 	   34.2120 	    4.0000 	   40.0000 	   28.1582 
    1.7472 	   34.2430 	    4.0000 	   40.0000 	   28.1892 
    1.7777 	   34.2750 	    4.0000 	   40.0000 	   28.2212 
    1.7624 	   34.3050 	    4.0000 	   40.0000 	   28.2512 
    1.8692 	   34.3360 	    4.0000 	   40.0000 	   28.2822 
    1.8540 	   34.3670 	    4.0000 	   40.0000 	   28.3132 
    1.8845 	   34.3970 	    4.0000 	   40.0000 	   28.3432 
    1.7014 	   34.4270 	    4.0000 	   40.0000 	   28.3732 
    1.8235 	   34.4590 	    4.0000 	   40.0000 	   28.4052 
    1.8845 	   34.4950 	    4.0000 	   40.0000 	   28.4412 
    1.8387 	   34.5280 	    4.0000 	   40.0000 	   28.4742 
    1.7624 	   34.5610 	    4.0000 	   40.0000 	   28.5072 
    1.7166 	   34.5950 	    4.0000 	   40.0000 	   28.5412 
    1.6403 	   34.6290 	    4.0000 	   40.0000 	   28.5752 
    1.8387 	   34.6630 	    4.0000 	   40.0000 	   28.6092 
    1.7929 	   34.6980 	    4.0000 	   40.0000 	   28.6442 
    1.6709 	   34.7310 	    4.0000 	   40.0000 	   28.6772 
    1.8387 	   34.7680 	    4.0000 	   40.0000 	   28.7142 
    1.7166 	   34.8030 	    4.0000 	   40.0000 	   28.7493 
    1.6861 	   34.8370 	    4.0000 	   40.0000 	   28.7833 
    1.7319 	   34.8690 	    4.0000 	   40.0000 	   28.8153 
    1.7624 	   34.9050 	    4.0000 	   40.0000 	   28.8513 
    1.7472 	   34.9390 	    4.0000 	   40.0000 	   28.8853 
    1.6709 	   34.9730 	    4.0000 	   40.0000 	   28.9193 
    1.7624 	   35.0060 	    4.0000 	   40.0000 	   28.9523 
    1.7472 	   35.0380 	    4.0000 	   40.0000 	   28.9843 
    1.8082 	   35.0760 	    4.0000 	   40.0000 	   29.0223 
    1.7166 	   35.1120 	    4.0000 	   40.0000 	   29.0583 
    1.7014 	   35.1460 	    4.0000 	   40.0000 	   29.0923 
    1.8082 	   35.1830 	    4.0000 	   40.0000 	   29.1293 
    1.7319 	   35.2130 	    4.0000 	   40.0000 	   29.1593 
    1.6403 	   35.2510 	    4.0000 	   40.0000 	   29.1973 
    1.7777 	   35.2820 	    4.0000 	   40.0000 	   29.2283 
    1.4115 	   35.3140 	    4.0000 	   40.0000 	   29.2603 
    1.3504 	   35.3450 	    4.0000 	   40.0000 	   29.2913 
    1.5946 	   35.3750 	    4.0000 	   40.0000 	   29.3213 
    1.7166 	   35.4040 	    4.0000 	   40.0000 	   29.3503 
    1.6709 	   35.4340 	    4.0000 	   40.0000 	   29.3803 
    1.7166 	   35.4680 	    4.0000 	   40.0000 	   29.4143 
    1.7166 	   35.5020 	    4.0000 	   40.0000 	   29.4483 
    1.6556 	   35.5360 	    4.0000 	   40.0000 	   29.4823 
    1.5793 	   35.5690 	    4.0000 	   40.0000 	   29.5153 
    1.3504 	   35.6040 	    4.0000 	   40.0000 	   29.5503 
    1.6098 	   35.6390 	    4.0000 	   40.0000 	   29.5853 
    1.6709 	   35.6720 	    4.0000 	   40.0000 	   29.6183 
    1.6556 	   35.7060 	    4.0000 	   40.0000 	   29.6523 
    1.4878 	   35.7410 	    4.0000 	   40.0000 	   29.6873 
    1.5488 	   35.7770 	    4.0000 	   40.0000 	   29.7233 
    1.7319 	   35.8160 	    4.0000 	   40.0000 	   29.7623 
    1.5946 	   35.8500 	    4.0000 	   40.0000 	   29.7963 
    1.5640 	   35.8840 	    4.0000 	   40.0000 	   29.8303 
    1.5946 	   35.9190 	    4.0000 	   40.0000 	   29.8653 
    1.7319 	   35.9550 	    4.0000 	   40.0000 	   29.9013 
    1.6861 	   35.9910 	    4.0000 	   40.0000 	   29.9373 
    1.5946 	   36.0270 	    4.0000 	   40.0000 	   29.9733 
    1.6709 	   36.0640 	    4.0000 	   40.0000 	   30.0103 
    1.8387 	   36.1020 	    4.0000 	   40.0000 	   30.0483 
    1.6403 	   36.1380 	    4.0000 	   40.0000 	   30.0843 
    1.5488 	   36.1730 	    4.0000 	   40.0000 	   30.1193 
    1.7014 	   36.2040 	    4.0000 	   40.0000 	   30.1503 
    1.7929 	   36.2360 	    4.0000 	   40.0000 	   30.1823 
    1.6098 	   36.2690 	    4.0000 	   40.0000 	   30.2143 
    1.6251 	   36.3010 	    4.0000 	   40.0000 	   30.2473 
    1.6403 	   36.3340 	    4.0000 	   40.0000 	   30.2803 
    1.5488 	   36.3650 	    4.0000 	   40.0000 	   30.3113 
    1.7014 	   36.3950 	    4.0000 	   40.0000 	   30.3413 
    1.4878 	   36.4260 	    4.0000 	   40.0000 	   30.3723 
    1.6098 	   36.4630 	    4.0000 	   40.0000 	   30.4093 
    1.5030 	   36.4960 	    4.0000 	   40.0000 	   30.4423 
    1.6556 	   36.5310 	    4.0000 	   40.0000 	   30.4773 
    1.5946 	   36.5640 	    4.0000 	   40.0000 	   30.5104 
    1.5488 	   36.5970 	    4.0000 	   40.0000 	   30.5434 
    1.5183 	   36.6320 	    4.0000 	   40.0000 	   30.5784 
    1.6556 	   36.6640 	    4.0000 	   40.0000 	   30.6104 
    1.6403 	   36.6970 	    4.0000 	   40.0000 	   30.6434 
    1.4725 	   36.7320 	    4.0000 	   40.0000 	   30.6784 
    1.5183 	   36.7650 	    4.0000 	   40.0000 	   30.7114 
    1.5335 	   36.8010 	    4.0000 	   40.0000 	   30.7474 
    1.6709 	   36.8370 	    4.0000 	   40.0000 	   30.7834 
    1.4725 	   36.8700 	    4.0000 	   40.0000 	   30.8164 
    1.5183 	   36.9060 	    4.0000 	   40.0000 	   30.8524 
    1.5488 	   36.9390 	    4.0000 	   40.0000 	   30.8854 
    1.4878 	   36.9720 	    4.0000 	   40.0000 	   30.9184 
    1.5640 	   37.0060 	    4.0000 	   40.0000 	   30.9524 
    1.5793 	   37.0390 	    4.0000 	   40.0000 	   30.9854 
    1.4878 	   37.0770 	    4.0000 	   40.0000 	   31.0234 
    1.4267 	   37.1130 	    4.0000 	   40.0000 	   31.0594 
    1.5335 	   37.1470 	    4.0000 	   40.0000 	   31.0934 
    1.4725 	   37.1820 	    4.0000 	   40.0000 	   31.1284 
    1.5488 	   37.2140 	    4.0000 	   40.0000 	   31.1604 
    1.4878 	   37.2470 	    4.0000 	   40.0000 	   31.1934 
    1.5030 	   37.2870 	    4.0000 	   40.0000 	   31.2334 
    1.3809 	   37.3180 	    4.0000 	   40.0000 	   31.2644 
    1.4878 	   37.3480 	    4.0000 	   40.0000 	   31.2944 
    1.5488 	   37.3790 	    4.0000 	   40.0000 	   31.3254 
    1.4420 	   37.4090 	    4.0000 	   40.0000 	   31.3554 
    1.4420 	   37.4400 	    4.0000 	   40.0000 	   31.3864 
    1.3657 	   37.4720 	    4.0000 	   40.0000 	   31.4184 
    1.4572 	   37.5060 	    4.0000 	   40.0000 	   31.4524 
    1.3199 	   37.5400 	    4.0000 	   40.0000 	   31.4864 
    1.5946 	   37.5760 	    4.0000 	   40.0000 	   31.5224 
    1.3962 	   37.6130 	    4.0000 	   40.0000 	   31.5594 
    1.5030 	   37.6460 	    4.0000 	   40.0000 	   31.5924 
    1.1673 	   37.6800 	    4.0000 	   40.0000 	   31.6264 
    1.3504 	   37.7160 	    4.0000 	   40.0000 	   31.6624 
    1.3199 	   37.7540 	    4.0000 	   40.0000 	   31.7004 
    1.5183 	   37.7890 	    4.0000 	   40.0000 	   31.7354 
    1.5183 	   37.8240 	    4.0000 	   40.0000 	   31.7704 
    1.5640 	   37.8590 	    4.0000 	   40.0000 	   31.8054 
    1.4420 	   37.8930 	    4.0000 	   40.0000 	   31.8394 
    1.5183 	   37.9310 	    4.0000 	   40.0000 	   31.8774 
    1.4878 	   37.9660 	    4.0000 	   40.0000 	   31.9124 
    1.3504 	   38.0030 	    4.0000 	   40.0000 	   31.9494 
    1.4572 	   38.0380 	    4.0000 	   40.0000 	   31.9844 
    1.3962 	   38.0760 	    4.0000 	   40.0000 	   32.0224 
    1.4420 	   38.1100 	    4.0000 	   40.0000 	   32.0564 
    1.5183 	   38.1480 	    4.0000 	   40.0000 	   32.0944 
    1.3504 	   38.1810 	    4.0000 	   40.0000 	   32.1274 
    1.3962 	   38.2140 	    4.0000 	   40.0000 	   32.1604 
    1.3046 	   38.2460 	    4.0000 	   40.0000 	   32.1924 
    1.5640 	   38.2800 	    4.0000 	   40.0000 	   32.2264 
    1.3657 	   38.3110 	    4.0000 	   40.0000 	   32.2575 
    1.3199 	   38.3420 	    4.0000 	   40.0000 	   32.2885 
    1.4267 	   38.3730 	    4.0000 	   40.0000 	   32.3195 
    1.5488 	   38.4030 	    4.0000 	   40.0000 	   32.3495 
    1.3504 	   38.4330 	    4.0000 	   40.0000 	   32.3795 
    1.5335 	   38.4630 	    4.0000 	   40.0000 	   32.4095 
    1.4420 	   38.4960 	    4.0000 	   40.0000 	   32.4425 
    1.5030 	   38.5300 	    4.0000 	   40.0000 	   32.4765 
    1.5183 	   38.5640 	    4.0000 	   40.0000 	   32.5105 
    1.4420 	   38.5990 	    4.0000 	   40.0000 	   32.5455 
    1.4420 	   38.6350 	    4.0000 	   40.0000 	   32.5815 
    1.5488 	   38.6720 	    4.0000 	   40.0000 	   32.6185 
    1.3352 	   38.7060 	    4.0000 	   40.0000 	   32.6525 
    1.4115 	   38.7400 	    4.0000 	   40.0000 	   32.6865 
    1.3199 	   38.7750 	    4.0000 	   40.0000 	   32.7215 
    1.3809 	   38.8100 	    4.0000 	   40.0000 	   32.7565 
    1.5183 	   38.8460 	    4.0000 	   40.0000 	   32.7925 
    1.5030 	   38.8820 	    4.0000 	   40.0000 	   32.8285 
    1.5335 	   38.9160 	    4.0000 	   40.0000 	   32.8625 
    1.3809 	   38.9500 	    4.0000 	   40.0000 	   32.8965 
    1.3809 	   38.9830 	    4.0000 	   40.0000 	   32.9295 
    1.4725 	   39.0170 	    4.0000 	   40.0000 	   32.9635 
    1.4420 	   39.0520 	    4.0000 	   40.0000 	   32.9985 
    1.3046 	   39.0920 	    4.0000 	   40.0000 	   33.0385 
    1.4267 	   39.1280 	    4.0000 	   40.0000 	   33.0745 
    1.3504 	   39.1620 	    4.0000 	   40.0000 	   33.1085 
    1.4878 	   39.1970 	    4.0000 	   40.0000 	   33.1435 
    1.3962 	   39.2290 	    4.0000 	   40.0000 	   33.1755 
    1.4878 	   39.2610 	    4.0000 	   40.0000 	   33.2075 
    1.4725 	   39.2960 	    4.0000 	   40.0000 	   33.2425 
    1.4267 	   39.3270 	    4.0000 	   40.0000 	   33.2735 
    1.3504 	   39.3600 	    4.0000 	   40.0000 	   33.3065 
    1.4420 	   39.3900 	    4.0000 	   40.0000 	   33.3365 
    1.2436 	   39.4200 	    4.0000 	   40.0000 	   33.3665 
    1.3657 	   39.4520 	    4.0000 	   40.0000 	   33.3985 
    1.4420 	   39.4850 	    4.0000 	   40.0000 	   33.4315 
    1.3504 	   39.5210 	    4.0000 	   40.0000 	   33.4675 
    1.1978 	   39.5560 	    4.0000 	   40.0000 	   33.5025 
    1.3504 	   39.5900 	    4.0000 	   40.0000 	   33.5365 
    1.4725 	   39.6250 	    4.0000 	   40.0000 	   33.5715 
    1.3046 	   39.6630 	    4.0000 	   40.0000 	   33.6095 
    1.4115 	   39.6980 	    4.0000 	   40.0000 	   33.6445 
    1.2589 	   39.7320 	    4.0000 	   40.0000 	   33.6785 
    1.3962 	   39.7670 	    4.0000 	   40.0000 	   33.7135 
    1.3809 	   39.8000 	    4.0000 	   40.0000 	   33.7465 
    1.1215 	   39.8340 	    4.0000 	   40.0000 	   33.7805 
    1.3352 	   39.8670 	    4.0000 	   40.0000 	   33.8135 
    1.3199 	   39.8990 	    4.0000 	   40.0000 	   33.8455 
    1.2589 	   39.9340 	    4.0000 	   40.0000 	   33.8805 
    1.3809 	   39.9680 	    4.0000 	   40.0000 	   33.9145 
    1.2284 	   40.0020 	    4.0000 	   40.0000 	   33.9485 
    1.3046 	   40.0370 	    4.0000 	   40.0000 	   33.9836 
    1.2436 	   40.0760 	    4.0000 	   40.0000 	   34.0226 
    1.1826 	   40.1110 	    4.0000 	   40.0000 	   34.0576 
    1.3199 	   40.1450 	    4.0000 	   40.0000 	   34.0916 
    1.2741 	   40.1800 	    4.0000 	   40.0000 	   34.1266 
    1.2589 	   40.2120 	    4.0000 	   40.0000 	   34.1586 
    1.3046 	   40.2440 	    4.0000 	   40.0000 	   34.1906 
    1.2589 	   40.2750 	    4.0000 	   40.0000 	   34.2216 
    1.2589 	   40.3070 	    4.0000 	   40.0000 	   34.2536 
    1.2894 	   40.3400 	    4.0000 	   40.0000 	   34.2866 
    1.0300 	   40.3710 	    4.0000 	   40.0000 	   34.3176 
    1.3504 	   40.4020 	    4.0000 	   40.0000 	   34.3486 
    1.3657 	   40.4350 	    4.0000 	   40.0000 	   34.3816 
    1.2894 	   40.4640 	    4.0000 	   40.0000 	   34.4106 
    1.2284 	   40.4940 	    4.0000 	   40.0000 	   34.4406 
    1.0147 	   40.5260 	    4.0000 	   40.0000 	   34.4726 
    1.3504 	   40.5610 	    4.0000 	   40.0000 	   34.5076 
    1.3199 	   40.5960 	    4.0000 	   40.0000 	   34.5426 
    1.3199 	   40.6320 	    4.0000 	   40.0000 	   34.5786 
    1.2436 	   40.6680 	    4.0000 	   40.0000 	   34.6146 
    1.3504 	   40.7000 	    4.0000 	   40.0000 	   34.6466 
    1.1826 	   40.7360 	    4.0000 	   40.0000 	   34.6826 
    1.2894 	   40.7710 	    4.0000 	   40.0000 	   34.7176 
    1.2284 	   40.8030 	    4.0000 	   40.0000 	   34.7496 
    1.3199 	   40.8390 	    4.0000 	   40.0000 	   34.7856 
    1.2741 	   40.8750 	    4.0000 	   40.0000 	   34.8216 
    1.2741 	   40.9100 	    4.0000 	   40.0000 	   34.8566 
    1.2436 	   40.9470 	    4.0000 	   40.0000 	   34.8936 
    1.3046 	   40.9820 	    4.0000 	   40.0000 	   34.9286 
    1.1063 	   41.0190 	    4.0000 	   40.0000 	   34.9656 
    1.3504 	   41.0560 	    4.0000 	   40.0000 	   35.0026 
    1.2284 	   41.0940 	    4.0000 	   40.0000 	   35.0406 
    1.3046 	   41.1290 	    4.0000 	   40.0000 	   35.0756 
    1.4725 	   41.1650 	    4.0000 	   40.0000 	   35.1116 
    0.9537 	   41.2010 	    4.0000 	   40.0000 	   35.1476 
    1.2436 	   41.2330 	    4.0000 	   40.0000 	   35.1796 
    1.1673 	   41.2700 	    4.0000 	   40.0000 	   35.2166 
    1.1673 	   41.3030 	    4.0000 	   40.0000 	   35.2496 
    1.2284 	   41.3370 	    4.0000 	   40.0000 	   35.2836 
    1.2741 	   41.3690 	    4.0000 	   40.0000 	   35.3156 
    1.1673 	   41.4010 	    4.0000 	   40.0000 	   35.3476 
    1.1826 	   41.4310 	    4.0000 	   40.0000 	   35.3776 
    1.1826 	   41.4630 	    4.0000 	   40.0000 	   35.4096 
    1.2131 	   41.5000 	    4.0000 	   40.0000 	   35.4466 
    1.1063 	   41.5350 	    4.0000 	   40.0000 	   35.4816 
    1.2284 	   41.5690 	    4.0000 	   40.0000 	   35.5156 
    1.1673 	   41.6070 	    4.0000 	   40.0000 	   35.5536 
    1.1063 	   41.6410 	    4.0000 	   40.0000 	   35.5876 
    1.2131 	   41.6760 	    4.0000 	   40.0000 	   35.6226 
    1.1063 	   41.7110 	    4.0000 	   40.0000 	   35.6576 
    1.3046 	   41.7470 	    4.0000 	   40.0000 	   35.6936 
    1.3809 	   41.7820 	    4.0000 	   40.0000 	   35.7286 
    1.2436 	   41.8170 	    4.0000 	   40.0000 	   35.7637 
    1.2436 	   41.8510 	    4.0000 	   40.0000 	   35.7977 
    1.2589 	   41.8860 	    4.0000 	   40.0000 	   35.8327 
    1.1978 	   41.9210 	    4.0000 	   40.0000 	   35.8677 
    1.0605 	   41.9580 	    4.0000 	   40.0000 	   35.9047 
    1.2589 	   41.9920 	    4.0000 	   40.0000 	   35.9387 
    1.1826 	   42.0280 	    4.0000 	   40.0000 	   35.9747 
    0.9384 	   42.0630 	    4.0000 	   40.0000 	   36.0097 
    1.1673 	   42.1010 	    4.0000 	   40.0000 	   36.0477 
    1.2589 	   42.1350 	    4.0000 	   40.0000 	   36.0817 
    1.1368 	   42.1700 	    4.0000 	   40.0000 	   36.1167 
    1.2436 	   42.2040 	    4.0000 	   40.0000 	   36.1507 
    1.2894 	   42.2360 	    4.0000 	   40.0000 	   36.1827 
    1.2436 	   42.2690 	    4.0000 	   40.0000 	   36.2157 
    0.9384 	   42.3020 	    4.0000 	   40.0000 	   36.2487 
    0.8621 	   42.3370 	    4.0000 	   40.0000 	   36.2837 
    1.0758 	   42.3700 	    4.0000 	   40.0000 	   36.3167 
    1.0758 	   42.4050 	    4.0000 	   40.0000 	   36.3517 
    1.2284 	   42.4350 	    4.0000 	   40.0000 	   36.3817 
    1.0300 	   42.4650 	    4.0000 	   40.0000 	   36.4117 
    1.2284 	   42.4980 	    4.0000 	   40.0000 	   36.4447 
    1.0605 	   42.5340 	    4.0000 	   40.0000 	   36.4807 
    1.0147 	   42.5690 	    4.0000 	   40.0000 	   36.5157 
    1.0910 	   42.6040 	    4.0000 	   40.0000 	   36.5507 
    1.0910 	   42.6410 	    4.0000 	   40.0000 	   36.5877 
    1.2436 	   42.6770 	    4.0000 	   40.0000 	   36.6237 
    1.1673 	   42.7110 	    4.0000 	   40.0000 	   36.6577 
    1.1521 	   42.7470 	    4.0000 	   40.0000 	   36.6937 
    1.2894 	   42.7830 	    4.0000 	   40.0000 	   36.7297 
    1.1521 	   42.8180 	    4.0000 	   40.0000 	   36.7647 
    1.2284 	   42.8530 	    4.0000 	   40.0000 	   36.7997 
    1.0758 	   42.8900 	    4.0000 	   40.0000 	   36.8367 
    1.2589 	   42.9270 	    4.0000 	   40.0000 	   36.8737 
    1.1368 	   42.9630 	    4.0000 	   40.0000 	   36.9097 
    1.1673 	   43.0000 	    4.0000 	   40.0000 	   36.9467 
    1.2436 	   43.0350 	    4.0000 	   40.0000 	   36.9817 
    1.3046 	   43.0730 	    4.0000 	   40.0000 	   37.0197 
    1.1521 	   43.1090 	    4.0000 	   40.0000 	   37.0557 
    1.2589 	   43.1450 	    4.0000 	   40.0000 	   37.0917 
    1.1063 	   43.1810 	    4.0000 	   40.0000 	   37.1277 
    1.0452 	   43.2180 	    4.0000 	   40.0000 	   37.1647 
    1.1215 	   43.2490 	    4.0000 	   40.0000 	   37.1957 
    1.1368 	   43.2830 	    4.0000 	   40.0000 	   37.2297 
    1.1521 	   43.3160 	    4.0000 	   40.0000 	   37.2627 
    1.1215 	   43.3490 	    4.0000 	   40.0000 	   37.2957 
    1.1368 	   43.3830 	    4.0000 	   40.0000 	   37.3297 
    1.1215 	   43.4140 	    4.0000 	   40.0000 	   37.3607 
    1.2436 	   43.4460 	    4.0000 	   40.0000 	   37.3927 
    1.0758 	   43.4820 	    4.0000 	   40.0000 	   37.4287 
    1.1063 	   43.5170 	    4.0000 	   40.0000 	   37.4637 
    1.2589 	   43.5520 	    4.0000 	   40.0000 	   37.4987 
    0.9384 	   43.5880 	    4.0000 	   40.0000 	   37.5348 
    1.1063 	   43.6230 	    4.0000 	   40.0000 	   37.5698 
    1.1368 	   43.6600 	    4.0000 	   40.0000 	   37.6068 
    1.1215 	   43.6970 	    4.0000 	   40.0000 	   37.6438 
    1.2131 	   43.7320 	    4.0000 	   40.0000 	   37.6788 
    1.2589 	   43.7670 	    4.0000 	   40.0000 	   37.7138 
    1.1215 	   43.8030 	    4.0000 	   40.0000 	   37.7498 
    1.1063 	   43.8390 	    4.0000 	   40.0000 	   37.7858 
    0.9079 	   43.8730 	    4.0000 	   40.0000 	   37.8198 
    1.1521 	   43.9080 	    4.0000 	   40.0000 	   37.8548 
    1.0605 	   43.9440 	    4.0000 	   40.0000 	   37.8908 
    0.9384 	   43.9790 	    4.0000 	   40.0000 	   37.9258 
    1.1063 	   44.0130 	    4.0000 	   40.0000 	   37.9598 
    0.8469 	   44.0500 	    4.0000 	   40.0000 	   37.9968 
    1.1673 	   44.0880 	    4.0000 	   40.0000 	   38.0348 
    1.0605 	   44.1240 	    4.0000 	   40.0000 	   38.0708 
    1.1215 	   44.1620 	    4.0000 	   40.0000 	   38.1088 
    1.0300 	   44.1990 	    4.0000 	   40.0000 	   38.1458 
    1.0758 	   44.2330 	    4.0000 	   40.0000 	   38.1798 
    1.0300 	   44.2660 	    4.0000 	   40.0000 	   38.2128 
    1.1063 	   44.2990 	    4.0000 	   40.0000 	   38.2458 
    1.0452 	   44.3300 	    4.0000 	   40.0000 	   38.2768 
    0.9689 	   44.3640 	    4.0000 	   40.0000 	   38.3108 
    1.0300 	   44.4000 	    4.0000 	   40.0000 	   38.3468 
    1.0147 	   44.4300 	    4.0000 	   40.0000 	   38.3768 
    1.0605 	   44.4610 	    4.0000 	   40.0000 	   38.4078 
    1.1215 	   44.4950 	    4.0000 	   40.0000 	   38.4418 
    0.9995 	   44.5300 	    4.0000 	   40.0000 	   38.4768 
    1.2284 	   44.5640 	    4.0000 	   40.0000 	   38.5108 
    1.2131 	   44.6000 	    4.0000 	   40.0000 	   38.5468 
    0.7553 	   44.6350 	    4.0000 	   40.0000 	   38.5818 
    1.1673 	   44.6720 	    4.0000 	   40.0000 	   38.6188 
    1.0147 	   44.7110 	    4.0000 	   40.0000 	   38.6578 
    1.0452 	   44.7480 	    4.0000 	   40.0000 	   38.6948 
    1.0300 	   44.7830 	    4.0000 	   40.0000 	   38.7298 
    1.1521 	   44.8200 	    4.0000 	   40.0000 	   38.7668 
    1.0147 	   44.8550 	    4.0000 	   40.0000 	   38.8018 
    0.9537 	   44.8900 	    4.0000 	   40.0000 	   38.8368 
    1.0452 	   44.9260 	    4.0000 	   40.0000 	   38.8728 
    1.0300 	   44.9620 	    4.0000 	   40.0000 	   38.9088 
    0.6943 	   44.9970 	    4.0000 	   40.0000 	   38.9438 
    1.0605 	   45.0340 	    4.0000 	   40.0000 	   38.9808 
    1.0910 	   45.0740 	    4.0000 	   40.0000 	   39.0208 
    1.0300 	   45.1120 	    4.0000 	   40.0000 	   39.0588 
    1.0147 	   45.1460 	    4.0000 	   40.0000 	   39.0928 
    1.1673 	   45.1820 	    4.0000 	   40.0000 	   39.1288 
    1.0758 	   45.2180 	    4.0000 	   40.0000 	   39.1648 
    1.0758 	   45.2510 	    4.0000 	   40.0000 	   39.1978 
    1.0605 	   45.2850 	    4.0000 	   40.0000 	   39.2318 
    1.1063 	   45.3180 	    4.0000 	   40.0000 	   39.2649 
    0.9842 	   45.3490 	    4.0000 	   40.0000 	   39.2959 
    0.9384 	   45.3830 	    4.0000 	   40.0000 	   39.3299 
    0.9995 	   45.4160 	    4.0000 	   40.0000 	   39.3629 
    1.0300 	   45.4480 	    4.0000 	   40.0000 	   39.3949 
    0.9689 	   45.4790 	    4.0000 	   40.0000 	   39.4259 
    1.1063 	   45.5110 	    4.0000 	   40.0000 	   39.4579 
    1.0910 	   45.5450 	    4.0000 	   40.0000 	   39.4919 
    1.0452 	   45.5820 	    4.0000 	   40.0000 	   39.5289 
    0.9689 	   45.6180 	    4.0000 	   40.0000 	   39.5649 
    1.1215 	   45.6500 	    4.0000 	   40.0000 	   39.5969 
    0.9384 	   45.6830 	    4.0000 	   40.0000 	   39.6299 
    1.0910 	   45.7160 	    4.0000 	   40.0000 	   39.6629 
    1.1063 	   45.7520 	    4.0000 	   40.0000 	   39.6989 
    0.9689 	   45.7890 	    4.0000 	   40.0000 	   39.7359 
    1.0758 	   45.8230 	    4.0000 	   40.0000 	   39.7699 
    1.0300 	   45.8600 	    4.0000 	   40.0000 	   39.8069 
    0.7401 	   45.8950 	    4.0000 	   40.0000 	   39.8419 
    0.9689 	   45.9320 	    4.0000 	   40.0000 	   39.8789 
    1.0147 	   45.9660 	    4.0000 	   40.0000 	   39.9129 
    0.8927 	   46.0020 	    4.0000 	   40.0000 	   39.9489 
    1.1063 	   46.0370 	    4.0000 	   40.0000 	   39.9839 
    0.9842 	   46.0790 	    4.0000 	   40.0000 	   40.0259 
    1.0605 	   46.1140 	    4.0000 	   40.0000 	   40.0609 
    0.9537 	   46.1510 	    4.0000 	   40.0000 	   40.0979 
    1.0300 	   46.1870 	    4.0000 	   40.0000 	   40.1339 
    1.0605 	   46.2210 	    4.0000 	   40.0000 	   40.1679 
    1.0300 	   46.2540 	    4.0000 	   40.0000 	   40.2009 
    1.0452 	   46.2880 	    4.0000 	   40.0000 	   40.2349 
    0.9537 	   46.3210 	    4.0000 	   40.0000 	   40.2679 
    0.9384 	   46.3530 	    4.0000 	   40.0000 	   40.2999 
    1.1826 	   46.3850 	    4.0000 	   40.0000 	   40.3319 
    1.0605 	   46.4190 	    4.0000 	   40.0000 	   40.3659 
    1.0452 	   46.4500 	    4.0000 	   40.0000 	   40.3969 
    0.9079 	   46.4810 	    4.0000 	   40.0000 	   40.4279 
    0.9537 	   46.5150 	    4.0000 	   40.0000 	   40.4619 
    0.8927 	   46.5500 	    4.0000 	   40.0000 	   40.4969 
    1.0300 	   46.5870 	    4.0000 	   40.0000 	   40.5339 
    0.9689 	   46.6220 	    4.0000 	   40.0000 	   40.5689 
    0.9995 	   46.6590 	    4.0000 	   40.0000 	   40.6059 
    1.0758 	   46.6960 	    4.0000 	   40.0000 	   40.6429 
    0.9232 	   46.7320 	    4.0000 	   40.0000 	   40.6789 
    0.9689 	   46.7700 	    4.0000 	   40.0000 	   40.7169 
    1.0300 	   46.8040 	    4.0000 	   40.0000 	   40.7509 
    1.0147 	   46.8410 	    4.0000 	   40.0000 	   40.7879 
    1.0910 	   46.8770 	    4.0000 	   40.0000 	   40.8239 
    0.6332 	   46.9140 	    4.0000 	   40.0000 	   40.8609 
    0.9384 	   46.9500 	    4.0000 	   40.0000 	   40.8969 
    1.0300 	   46.9870 	    4.0000 	   40.0000 	   40.9339 
    0.9537 	   47.0240 	    4.0000 	   40.0000 	   40.9710 
    0.9995 	   47.0600 	    4.0000 	   40.0000 	   41.0070 
    0.8621 	   47.1000 	    4.0000 	   40.0000 	   41.0470 
    0.8469 	   47.1360 	    4.0000 	   40.0000 	   41.0830 
    0.9842 	   47.1700 	    4.0000 	   40.0000 	   41.1170 
    0.8469 	   47.2050 	    4.0000 	   40.0000 	   41.1520 
    0.8621 	   47.2380 	    4.0000 	   40.0000 	   41.1850 
    0.8774 	   47.2730 	    4.0000 	   40.0000 	   41.2200 
    1.1063 	   47.3070 	    4.0000 	   40.0000 	   41.2540 
    1.0147 	   47.3420 	    4.0000 	   40.0000 	   41.2890 
    0.9537 	   47.3740 	    4.0000 	   40.0000 	   41.3210 
    0.8927 	   47.4090 	    4.0000 	   40.0000 	   41.3560 
    1.0300 	   47.4410 	    4.0000 	   40.0000 	   41.3880 
    1.0605 	   47.4720 	    4.0000 	   40.0000 	   41.4190 
    0.9537 	   47.5040 	    4.0000 	   40.0000 	   41.4510 
    0.9384 	   47.5360 	    4.0000 	   40.0000 	   41.4830 
    1.0758 	   47.5690 	    4.0000 	   40.0000 	   41.5160 
    0.8927 	   47.6020 	    4.0000 	   40.0000 	   41.5490 
    0.6180 	   47.6370 	    4.0000 	   40.0000 	   41.5840 
    0.8927 	   47.6730 	    4.0000 	   40.0000 	   41.6200 
    0.9384 	   47.7090 	    4.0000 	   40.0000 	   41.6560 
    0.9842 	   47.7460 	    4.0000 	   40.0000 	   41.6930 
    0.9232 	   47.7820 	    4.0000 	   40.0000 	   41.7290 
    0.8621 	   47.8190 	    4.0000 	   40.0000 	   41.7660 
    0.8164 	   47.8560 	    4.0000 	   40.0000 	   41.8030 
    0.9232 	   47.8910 	    4.0000 	   40.0000 	   41.8380 
    1.0300 	   47.9280 	    4.0000 	   40.0000 	   41.8750 
    1.0147 	   47.9640 	    4.0000 	   40.0000 	   41.9110 
    0.9537 	   48.0010 	    4.0000 	   40.0000 	   41.9480 
    0.8927 	   48.0360 	    4.0000 	   40.0000 	   41.9830 
    0.9995 	   48.0760 	    4.0000 	   40.0000 	   42.0230 
    0.8469 	   48.1130 	    4.0000 	   40.0000 	   42.0600 
    0.8774 	   48.1500 	    4.0000 	   40.0000 	   42.0970 
    0.8774 	   48.1860 	    4.0000 	   40.0000 	   42.1330 
    0.9384 	   48.2230 	    4.0000 	   40.0000 	   42.1700 
    0.9537 	   48.2560 	    4.0000 	   40.0000 	   42.2030 
    0.8164 	   48.2900 	    4.0000 	   40.0000 	   42.2370 
    0.9537 	   48.3240 	    4.0000 	   40.0000 	   42.2710 
    0.9995 	   48.3560 	    4.0000 	   40.0000 	   42.3030 
    0.9537 	   48.3910 	    4.0000 	   40.0000 	   42.3380 
    0.9232 	   48.4250 	    4.0000 	   40.0000 	   42.3710 
    1.0452 	   48.4560 	    4.0000 	   40.0000 	   42.4020 
    0.9537 	   48.4870 	    4.0000 	   40.0000 	   42.4330 
    0.8316 	   48.5200 	    4.0000 	   40.0000 	   42.4660 
    0.8469 	   48.5550 	    4.0000 	   40.0000 	   42.5010 
    0.9232 	   48.5900 	    4.0000 	   40.0000 	   42.5360 
    0.8621 	   48.6270 	    4.0000 	   40.0000 	   42.5730 
    0.9232 	   48.6670 	    4.0000 	   40.0000 	   42.6130 
    0.8927 	   48.7010 	    4.0000 	   40.0000 	   42.6470 
    0.8164 	   48.7380 	    4.0000 	   40.0000 	   42.6840 
    0.8316 	   48.7730 	    4.0000 	   40.0000 	   42.7190 
    0.9995 	   48.8080 	    4.0000 	   40.0000 	   42.7541 
    0.9384 	   48.8450 	    4.0000 	   40.0000 	   42.7911 
    0.8621 	   48.8800 	    4.0000 	   40.0000 	   42.8261 
    0.9079 	   48.9180 	    4.0000 	   40.0000 	   42.8641 
    0.8774 	   48.9560 	    4.0000 	   40.0000 	   42.9021 
    1.0300 	   48.9910 	    4.0000 	   40.0000 	   42.9371 
    0.8927 	   49.0270 	    4.0000 	   40.0000 	   42.9731 
    0.9384 	   49.0620 	    4.0000 	   40.0000 	   43.0081 
    0.7858 	   49.1020 	    4.0000 	   40.0000 	   43.0481 
    1.0300 	   49.1390 	    4.0000 	   40.0000 	   43.0851 
    0.9842 	   49.1740 	    4.0000 	   40.0000 	   43.1201 
    0.8927 	   49.2120 	    4.0000 	   40.0000 	   43.1581 
    0.8469 	   49.2460 	    4.0000 	   40.0000 	   43.1921 
    0.8164 	   49.2790 	    4.0000 	   40.0000 	   43.2251 
    0.8621 	   49.3120 	    4.0000 	   40.0000 	   43.2581 
    0.8621 	   49.3470 	    4.0000 	   40.0000 	   43.2931 
    0.8316 	   49.3800 	    4.0000 	   40.0000 	   43.3261 
    0.9537 	   49.4120 	    4.0000 	   40.0000 	   43.3581 
    0.9842 	   49.4480 	    4.0000 	   40.0000 	   43.3941 
    0.8927 	   49.4780 	    4.0000 	   40.0000 	   43.4241 
    0.8774 	   49.5090 	    4.0000 	   40.0000 	   43.4551 
    0.8011 	   49.5410 	    4.0000 	   40.0000 	   43.4871 
    0.8469 	   49.5770 	    4.0000 	   40.0000 	   43.5231 
    0.9079 	   49.6140 	    4.0000 	   40.0000 	   43.5601 
    0.9079 	   49.6520 	    4.0000 	   40.0000 	   43.5981 
    0.9384 	   49.6890 	    4.0000 	   40.0000 	   43.6351 
    0.8164 	   49.7250 	    4.0000 	   40.0000 	   43.6711 
    0.8927 	   49.7620 	    4.0000 	   40.0000 	   43.7081 
    0.7401 	   49.7970 	    4.0000 	   40.0000 	   43.7431 
    0.9079 	   49.8320 	    4.0000 	   40.0000 	   43.7781 
    0.7553 	   49.8680 	    4.0000 	   40.0000 	   43.8141 
    0.9842 	   49.9050 	    4.0000 	   40.0000 	   43.8511 
    0.8011 	   49.9410 	    4.0000 	   40.0000 	   43.8871 
    0.9079 	   49.9780 	    4.0000 	   40.0000 	   43.9241 
    0.7858 	   50.0120 	    4.0000 	   40.0000 	   43.9581 
    0.4807 	   50.0490 	    4.0000 	   40.0000 	   43.9951 
    1.0300 	   50.0890 	    4.0000 	   40.0000 	   44.0351 
    0.8469 	   50.1270 	    4.0000 	   40.0000 	   44.0731 
    0.8164 	   50.1640 	    4.0000 	   40.0000 	   44.1101 
    0.8011 	   50.1990 	    4.0000 	   40.0000 	   44.1441 
    0.8316 	   50.2340 	    4.0000 	   40.0000 	   44.1801 
    0.9079 	   50.2680 	    4.0000 	   40.0000 	   44.2141 
    1.0605 	   50.3030 	    4.0000 	   40.0000 	   44.2491 
    0.8011 	   50.3370 	    4.0000 	   40.0000 	   44.2831 
    0.9232 	   50.3710 	    4.0000 	   40.0000 	   44.3171 
    0.6332 	   50.4030 	    4.0000 	   40.0000 	   44.3491 
    0.7706 	   50.4370 	    4.0000 	   40.0000 	   44.3831 
    0.8927 	   50.4710 	    4.0000 	   40.0000 	   44.4171 
    0.9384 	   50.5010 	    4.0000 	   40.0000 	   44.4471 
    0.7553 	   50.5340 	    4.0000 	   40.0000 	   44.4801 
    0.9079 	   50.5710 	    4.0000 	   40.0000 	   44.5172 
    0.8164 	   50.6090 	    4.0000 	   40.0000 	   44.5552 
    0.8011 	   50.6450 	    4.0000 	   40.0000 	   44.5912 
    0.8774 	   50.6830 	    4.0000 	   40.0000 	   44.6292 
    0.7858 	   50.7180 	    4.0000 	   40.0000 	   44.6642 
    0.8164 	   50.7550 	    4.0000 	   40.0000 	   44.7012 
    0.9689 	   50.7920 	    4.0000 	   40.0000 	   44.7382 
    0.8927 	   50.8270 	    4.0000 	   40.0000 	   44.7732 
    0.8774 	   50.8600 	    4.0000 	   40.0000 	   44.8062 
    0.9689 	   50.8960 	    4.0000 	   40.0000 	   44.8422 
    0.8927 	   50.9320 	    4.0000 	   40.0000 	   44.8782 
    0.7553 	   50.9660 	    4.0000 	   40.0000 	   44.9122 
    0.9384 	   51.0010 	    4.0000 	   40.0000 	   44.9472 
    0.8621 	   51.0370 	    4.0000 	   40.0000 	   44.9832 
    1.0300 	   51.0760 	    4.0000 	   40.0000 	   45.0222 
    0.7553 	   51.1090 	    4.0000 	   40.0000 	   45.0552 
    0.8316 	   51.1430 	    4.0000 	   40.0000 	   45.0892 
    0.8316 	   51.1750 	    4.0000 	   40.0000 	   45.1212 
    0.8621 	   51.2100 	    4.0000 	   40.0000 	   45.1562 
    0.8927 	   51.2430 	    4.0000 	   40.0000 	   45.1892 
    0.8621 	   51.2760 	    4.0000 	   40.0000 	   45.2222 
    0.9537 	   51.3090 	    4.0000 	   40.0000 	   45.2552 
    0.9384 	   51.3420 	    4.0000 	   40.0000 	   45.2882 
    0.8469 	   51.3770 	    4.0000 	   40.0000 	   45.3232 
    0.8621 	   51.4090 	    4.0000 	   40.0000 	   45.3552 
    0.8927 	   51.4420 	    4.0000 	   40.0000 	   45.3882 
    0.8316 	   51.4750 	    4.0000 	   40.0000 	   45.4212 
    1.1368 	   51.5070 	    4.0000 	   40.0000 	   45.4532 
    0.6943 	   51.5400 	    4.0000 	   40.0000 	   45.4862 
    0.9384 	   51.5760 	    4.0000 	   40.0000 	   45.5212 
    0.8316 	   51.6130 	    4.0000 	   40.0000 	   45.5592 
    1.0300 	   51.6480 	    4.0000 	   40.0000 	   45.5942 
    0.7858 	   51.6850 	    4.0000 	   40.0000 	   45.6312 
    0.9689 	   51.7230 	    4.0000 	   40.0000 	   45.6692 
    0.9232 	   51.7580 	    4.0000 	   40.0000 	   45.7042 
    0.6180 	   51.7960 	    4.0000 	   40.0000 	   45.7422 
    0.7095 	   51.8320 	    4.0000 	   40.0000 	   45.7782 
    0.8621 	   51.8660 	    4.0000 	   40.0000 	   45.8122 
    0.7706 	   51.9030 	    4.0000 	   40.0000 	   45.8492 
    0.7553 	   51.9400 	    4.0000 	   40.0000 	   45.8862 
    1.0300 	   51.9770 	    4.0000 	   40.0000 	   45.9232 
    0.9079 	   52.0120 	    4.0000 	   40.0000 	   45.9582 
    0.8011 	   52.0480 	    4.0000 	   40.0000 	   45.9942 
    0.6638 	   52.0920 	    4.0000 	   40.0000 	   46.0382 
    0.8774 	   52.1300 	    4.0000 	   40.0000 	   46.0762 
    0.9384 	   52.1690 	    4.0000 	   40.0000 	   46.1152 
    0.9537 	   52.2060 	    4.0000 	   40.0000 	   46.1522 
    0.7095 	   52.2430 	    4.0000 	   40.0000 	   46.1892 
    0.9537 	   52.2780 	    4.0000 	   40.0000 	   46.2243 
    0.8011 	   52.3120 	    4.0000 	   40.0000 	   46.2583 
    0.7858 	   52.3450 	    4.0000 	   40.0000 	   46.2913 
    0.7858 	   52.3780 	    4.0000 	   40.0000 	   46.3243 
    1.0758 	   52.4090 	    4.0000 	   40.0000 	   46.3553 
    0.9232 	   52.4420 	    4.0000 	   40.0000 	   46.3883 
    0.9842 	   52.4740 	    4.0000 	   40.0000 	   46.4203 
    1.0452 	   52.5080 	    4.0000 	   40.0000 	   46.4543 
    0.9537 	   52.5440 	    4.0000 	   40.0000 	   46.4903 
    0.8621 	   52.5790 	    4.0000 	   40.0000 	   46.5253 
    0.9842 	   52.6140 	    4.0000 	   40.0000 	   46.5603 
    0.9995 	   52.6500 	    4.0000 	   40.0000 	   46.5963 
    1.0605 	   52.6870 	    4.0000 	   40.0000 	   46.6333 
    0.7401 	   52.7230 	    4.0000 	   40.0000 	   46.6693 
    0.9079 	   52.7620 	    4.0000 	   40.0000 	   46.7083 
    0.9384 	   52.7990 	    4.0000 	   40.0000 	   46.7453 
    1.0605 	   52.8350 	    4.0000 	   40.0000 	   46.7813 
    1.0147 	   52.8690 	    4.0000 	   40.0000 	   46.8153 
    0.9842 	   52.9020 	    4.0000 	   40.0000 	   46.8483 
    0.9995 	   52.9360 	    4.0000 	   40.0000 	   46.8823 
    0.9384 	   52.9700 	    4.0000 	   40.0000 	   46.9163 
    0.8164 	   53.0030 	    4.0000 	   40.0000 	   46.9493 
    1.0758 	   53.0360 	    4.0000 	   40.0000 	   46.9823 
    1.1368 	   53.0760 	    4.0000 	   40.0000 	   47.0223 
    0.9842 	   53.1090 	    4.0000 	   40.0000 	   47.0553 
    1.2284 	   53.1470 	    4.0000 	   40.0000 	   47.0933 
    0.8164 	   53.1820 	    4.0000 	   40.0000 	   47.1283 
    1.1368 	   53.2150 	    4.0000 	   40.0000 	   47.1613 
    1.0147 	   53.2480 	    4.0000 	   40.0000 	   47.1943 
    1.0758 	   53.2800 	    4.0000 	   40.0000 	   47.2263 
    0.9995 	   53.3130 	    4.0000 	   40.0000 	   47.2593 
    0.9842 	   53.3450 	    4.0000 	   40.0000 	   47.2913 
    0.9842 	   53.3790 	    4.0000 	   40.0000 	   47.3253 
    0.8469 	   53.4130 	    4.0000 	   40.0000 	   47.3593 
    1.0758 	   53.4470 	    4.0000 	   40.0000 	   47.3933 
    1.1368 	   53.4780 	    4.0000 	   40.0000 	   47.4243 
    1.0452 	   53.5100 	    4.0000 	   40.0000 	   47.4563 
    1.1368 	   53.5420 	    4.0000 	   40.0000 	   47.4883 
    0.9995 	   53.5750 	    4.0000 	   40.0000 	   47.5213 
    1.0758 	   53.6090 	    4.0000 	   40.0000 	   47.5553 
    1.0910 	   53.6450 	    4.0000 	   40.0000 	   47.5913 
    1.0605 	   53.6820 	    4.0000 	   40.0000 	   47.6283 
    1.0452 	   53.7180 	    4.0000 	   40.0000 	   47.6643 
    1.0300 	   53.7580 	    4.0000 	   40.0000 	   47.7043 
    1.1063 	   53.7960 	    4.0000 	   40.0000 	   47.7423 
    1.1673 	   53.8350 	    4.0000 	   40.0000 	   47.7813 
    0.9842 	   53.8710 	    4.0000 	   40.0000 	   47.8173 
    1.1215 	   53.9070 	    4.0000 	   40.0000 	   47.8533 
    1.1063 	   53.9440 	    4.0000 	   40.0000 	   47.8903 
    1.0605 	   53.9830 	    4.0000 	   40.0000 	   47.9293 
    1.2589 	   54.0190 	    4.0000 	   40.0000 	   47.9654 
    1.2284 	   54.0550 	    4.0000 	   40.0000 	   48.0014 
    1.2589 	   54.0960 	    4.0000 	   40.0000 	   48.0424 
    1.2436 	   54.1330 	    4.0000 	   40.0000 	   48.0794 
    1.1673 	   54.1680 	    4.0000 	   40.0000 	   48.1144 
    1.1215 	   54.2040 	    4.0000 	   40.0000 	   48.1504 
    1.2131 	   54.2410 	    4.0000 	   40.0000 	   48.1874 
    1.1063 	   54.2760 	    4.0000 	   40.0000 	   48.2224 
    1.0300 	   54.3110 	    4.0000 	   40.0000 	   48.2574 
    1.0758 	   54.3470 	    4.0000 	   40.0000 	   48.2934 
    1.0300 	   54.3790 	    4.0000 	   40.0000 	   48.3254 
    1.1368 	   54.4150 	    4.0000 	   40.0000 	   48.3614 
    1.2436 	   54.4470 	    4.0000 	   40.0000 	   48.3934 
    1.0758 	   54.4790 	    4.0000 	   40.0000 	   48.4254 
    1.1063 	   54.5120 	    4.0000 	   40.0000 	   48.4584 
    1.2589 	   54.5450 	    4.0000 	   40.0000 	   48.4914 
    1.3504 	   54.5780 	    4.0000 	   40.0000 	   48.5244 
    1.1978 	   54.6100 	    4.0000 	   40.0000 	   48.5564 
    1.3199 	   54.6450 	    4.0000 	   40.0000 	   48.5914 
    1.0605 	   54.6810 	    4.0000 	   40.0000 	   48.6274 
    1.2436 	   54.7160 	    4.0000 	   40.0000 	   48.6624 
    1.1368 	   54.7550 	    4.0000 	   40.0000 	   48.7014 
    1.1673 	   54.7910 	    4.0000 	   40.0000 	   48.7374 
    1.1826 	   54.8270 	    4.0000 	   40.0000 	   48.7734 
    1.2284 	   54.8650 	    4.0000 	   40.0000 	   48.8114 
    1.2741 	   54.9020 	    4.0000 	   40.0000 	   48.8484 
    1.3199 	   54.9400 	    4.0000 	   40.0000 	   48.8864 
    1.1978 	   54.9780 	    4.0000 	   40.0000 	   48.9244 
    1.2436 	   55.0140 	    4.0000 	   40.0000 	   48.9604 
    1.3352 	   55.0520 	    4.0000 	   40.0000 	   48.9984 
    1.1521 	   55.0910 	    4.0000 	   40.0000 	   49.0374 
    1.1673 	   55.1280 	    4.0000 	   40.0000 	   49.0744 
    1.2131 	   55.1660 	    4.0000 	   40.0000 	   49.1124 
    1.2131 	   55.2020 	    4.0000 	   40.0000 	   49.1484 
    1.0910 	   55.2420 	    4.0000 	   40.0000 	   49.1884 
    1.2436 	   55.2760 	    4.0000 	   40.0000 	   49.2224 
    1.1215 	   55.3110 	    4.0000 	   40.0000 	   49.2574 
    1.4725 	   55.3450 	    4.0000 	   40.0000 	   49.2914 
    1.0758 	   55.3780 	    4.0000 	   40.0000 	   49.3244 
    1.0758 	   55.4120 	    4.0000 	   40.0000 	   49.3584 
    1.1521 	   55.4460 	    4.0000 	   40.0000 	   49.3924 
    1.1978 	   55.4780 	    4.0000 	   40.0000 	   49.4244 
    1.1063 	   55.5100 	    4.0000 	   40.0000 	   49.4564 
    1.1978 	   55.5440 	    4.0000 	   40.0000 	   49.4904 
    1.1368 	   55.5770 	    4.0000 	   40.0000 	   49.5234 
    1.2284 	   55.6100 	    4.0000 	   40.0000 	   49.5564 
    1.2741 	   55.6450 	    4.0000 	   40.0000 	   49.5914 
    1.0758 	   55.6820 	    4.0000 	   40.0000 	   49.6284 
    1.3504 	   55.7190 	    4.0000 	   40.0000 	   49.6654 
    1.2741 	   55.7570 	    4.0000 	   40.0000 	   49.7034 
    1.1368 	   55.7920 	    4.0000 	   40.0000 	   49.7384 
    1.2436 	   55.8300 	    4.0000 	   40.0000 	   49.7765 
    1.1063 	   55.8640 	    4.0000 	   40.0000 	   49.8105 
    1.1673 	   55.8980 	    4.0000 	   40.0000 	   49.8445 
    0.8621 	   55.9350 	    4.0000 	   40.0000 	   49.8815 
    1.2589 	   55.9720 	    4.0000 	   40.0000 	   49.9185 
    1.1826 	   56.0090 	    4.0000 	   40.0000 	   49.9555 
    1.2741 	   56.0460 	    4.0000 	   40.0000 	   49.9925 
    1.3962 	   56.0890 	    4.0000 	   40.0000 	   50.0355 
    1.1978 	   56.1260 	    4.0000 	   40.0000 	   50.0725 
    1.2589 	   56.1630 	    4.0000 	   40.0000 	   50.1095 
    1.1826 	   56.2000 	    4.0000 	   40.0000 	   50.1465 
    1.4115 	   56.2380 	    4.0000 	   40.0000 	   50.1845 
    1.3352 	   56.2760 	    4.0000 	   40.0000 	   50.2225 
    1.3657 	   56.3100 	    4.0000 	   40.0000 	   50.2565 
    1.2589 	   56.3450 	    4.0000 	   40.0000 	   50.2915 
    1.2741 	   56.3790 	    4.0000 	   40.0000 	   50.3255 
    1.2741 	   56.4120 	    4.0000 	   40.0000 	   50.3585 
    1.2894 	   56.4450 	    4.0000 	   40.0000 	   50.3915 
    1.3199 	   56.4770 	    4.0000 	   40.0000 	   50.4235 
    1.4115 	   56.5090 	    4.0000 	   40.0000 	   50.4555 
    1.3352 	   56.5430 	    4.0000 	   40.0000 	   50.4895 
    1.0300 	   56.5800 	    4.0000 	   40.0000 	   50.5265 
    1.3352 	   56.6170 	    4.0000 	   40.0000 	   50.5625 
    1.3199 	   56.6520 	    4.0000 	   40.0000 	   50.5985 
    1.0910 	   56.6900 	    4.0000 	   40.0000 	   50.6365 
    1.3657 	   56.7240 	    4.0000 	   40.0000 	   50.6705 
    1.5030 	   56.7590 	    4.0000 	   40.0000 	   50.7055 
    1.3199 	   56.7920 	    4.0000 	   40.0000 	   50.7385 
    1.2589 	   56.8270 	    4.0000 	   40.0000 	   50.7735 
    1.3504 	   56.8650 	    4.0000 	   40.0000 	   50.8115 
    1.1826 	   56.9010 	    4.0000 	   40.0000 	   50.8475 
    1.3809 	   56.9370 	    4.0000 	   40.0000 	   50.8835 
    1.3962 	   56.9750 	    4.0000 	   40.0000 	   50.9215 
    1.3046 	   57.0110 	    4.0000 	   40.0000 	   50.9575 
    1.2741 	   57.0480 	    4.0000 	   40.0000 	   50.9945 
    1.2436 	   57.0880 	    4.0000 	   40.0000 	   51.0345 
    1.2741 	   57.1250 	    4.0000 	   40.0000 	   51.0715 
    1.3199 	   57.1630 	    4.0000 	   40.0000 	   51.1095 
    1.3504 	   57.2000 	    4.0000 	   40.0000 	   51.1465 
    1.3504 	   57.2340 	    4.0000 	   40.0000 	   51.1805 
    1.4572 	   57.2670 	    4.0000 	   40.0000 	   51.2135 
    1.3504 	   57.3010 	    4.0000 	   40.0000 	   51.2475 
    1.3504 	   57.3340 	    4.0000 	   40.0000 	   51.2805 
    1.4420 	   57.3690 	    4.0000 	   40.0000 	   51.3155 
    1.1673 	   57.4020 	    4.0000 	   40.0000 	   51.3485 
    1.4267 	   57.4350 	    4.0000 	   40.0000 	   51.3815 
    1.3046 	   57.4680 	    4.0000 	   40.0000 	   51.4145 
    1.3809 	   57.4990 	    4.0000 	   40.0000 	   51.4455 
    1.5030 	   57.5330 	    4.0000 	   40.0000 	   51.4795 
    1.4420 	   57.5670 	    4.0000 	   40.0000 	   51.5136 
    1.4878 	   57.6010 	    4.0000 	   40.0000 	   51.5476 
    1.4725 	   57.6340 	    4.0000 	   40.0000 	   51.5806 
    1.3657 	   57.6690 	    4.0000 	   40.0000 	   51.6156 
    1.3809 	   57.7050 	    4.0000 	   40.0000 	   51.6516 
    1.3199 	   57.7410 	    4.0000 	   40.0000 	   51.6876 
    1.4572 	   57.7790 	    4.0000 	   40.0000 	   51.7256 
    1.4420 	   57.8150 	    4.0000 	   40.0000 	   51.7616 
    1.3504 	   57.8510 	    4.0000 	   40.0000 	   51.7976 
    1.1215 	   57.8840 	    4.0000 	   40.0000 	   51.8306 
    1.4115 	   57.9190 	    4.0000 	   40.0000 	   51.8656 
    1.5183 	   57.9570 	    4.0000 	   40.0000 	   51.9036 
    1.1673 	   57.9950 	    4.0000 	   40.0000 	   51.9416 
    1.5793 	   58.0300 	    4.0000 	   40.0000 	   51.9766 
    1.4572 	   58.0670 	    4.0000 	   40.0000 	   52.0136 
    1.4420 	   58.1060 	    4.0000 	   40.0000 	   52.0526 
    1.5183 	   58.1450 	    4.0000 	   40.0000 	   52.0916 
    1.4267 	   58.1820 	    4.0000 	   40.0000 	   52.1286 
    1.4725 	   58.2170 	    4.0000 	   40.0000 	   52.1636 
    1.4878 	   58.2500 	    4.0000 	   40.0000 	   52.1966 
    1.4420 	   58.2860 	    4.0000 	   40.0000 	   52.2326 
    1.6556 	   58.3190 	    4.0000 	   40.0000 	   52.2656 
    1.3809 	   58.3530 	    4.0000 	   40.0000 	   52.2996 
    1.3809 	   58.3870 	    4.0000 	   40.0000 	   52.3336 
    1.4725 	   58.4200 	    4.0000 	   40.0000 	   52.3666 
    1.5335 	   58.4530 	    4.0000 	   40.0000 	   52.3996 
    1.5183 	   58.4860 	    4.0000 	   40.0000 	   52.4326 
    1.5183 	   58.5180 	    4.0000 	   40.0000 	   52.4646 
    1.5640 	   58.5510 	    4.0000 	   40.0000 	   52.4976 
    1.6556 	   58.5860 	    4.0000 	   40.0000 	   52.5326 
    1.5488 	   58.6190 	    4.0000 	   40.0000 	   52.5656 
    1.4878 	   58.6550 	    4.0000 	   40.0000 	   52.6016 
    1.4878 	   58.6930 	    4.0000 	   40.0000 	   52.6396 
    1.6098 	   58.7280 	    4.0000 	   40.0000 	   52.6746 
    1.4267 	   58.7650 	    4.0000 	   40.0000 	   52.7116 
    1.5030 	   58.8010 	    4.0000 	   40.0000 	   52.7476 
    1.4420 	   58.8390 	    4.0000 	   40.0000 	   52.7856 
    1.6403 	   58.8780 	    4.0000 	   40.0000 	   52.8246 
    1.5183 	   58.9140 	    4.0000 	   40.0000 	   52.8606 
    1.5030 	   58.9510 	    4.0000 	   40.0000 	   52.8976 
    1.5946 	   58.9880 	    4.0000 	   40.0000 	   52.9346 
    1.6251 	   59.0250 	    4.0000 	   40.0000 	   52.9716 
    1.5488 	   59.0620 	    4.0000 	   40.0000 	   53.0086 
    1.6556 	   59.1020 	    4.0000 	   40.0000 	   53.0486 
    1.5030 	   59.1360 	    4.0000 	   40.0000 	   53.0826 
    1.3504 	   59.1730 	    4.0000 	   40.0000 	   53.1196 
    1.2894 	   59.2100 	    4.0000 	   40.0000 	   53.1566 
    1.5030 	   59.2490 	    4.0000 	   40.0000 	   53.1956 
    1.5793 	   59.2850 	    4.0000 	   40.0000 	   53.2317 
    1.5335 	   59.3210 	    4.0000 	   40.0000 	   53.2667 
    1.5335 	   59.3570 	    4.0000 	   40.0000 	   53.3037 
    1.6861 	   59.3920 	    4.0000 	   40.0000 	   53.3387 
    1.5335 	   59.4320 	    4.0000 	   40.0000 	   53.3787 
    1.6251 	   59.4650 	    4.0000 	   40.0000 	   53.4117 
    1.5946 	   59.4970 	    4.0000 	   40.0000 	   53.4437 
    1.5183 	   59.5300 	    4.0000 	   40.0000 	   53.4767 
    1.5488 	   59.5630 	    4.0000 	   40.0000 	   53.5097 
    1.6251 	   59.5960 	    4.0000 	   40.0000 	   53.5427 
    1.6556 	   59.6290 	    4.0000 	   40.0000 	   53.5757 
    1.5335 	   59.6630 	    4.0000 	   40.0000 	   53.6097 
    1.6709 	   59.6970 	    4.0000 	   40.0000 	   53.6437 
    1.5793 	   59.7300 	    4.0000 	   40.0000 	   53.6767 
    1.7166 	   59.7650 	    4.0000 	   40.0000 	   53.7117 
    1.5793 	   59.8010 	    4.0000 	   40.0000 	   53.7477 
    1.5488 	   59.8380 	    4.0000 	   40.0000 	   53.7847 
    1.6709 	   59.8740 	    4.0000 	   40.0000 	   53.8207 
    1.5030 	   59.9110 	    4.0000 	   40.0000 	   53.8577 
    1.6556 	   59.9470 	    4.0000 	   40.0000 	   53.8937 
    1.5030 	   59.9840 	    4.0000 	   40.0000 	   53.9307 
    1.5946 	   60.0210 	    4.0000 	   40.0000 	   53.9677 
    1.7166 	   60.0580 	    4.0000 	   40.0000 	   54.0047 
    1.5488 	   60.0980 	    4.0000 	   40.0000 	   54.0447 
    1.5488 	   60.1340 	    4.0000 	   40.0000 	   54.0807 
    1.6251 	   60.1720 	    4.0000 	   40.0000 	   54.1187 
    1.6251 	   60.2080 	    4.0000 	   40.0000 	   54.1547 
    1.6251 	   60.2460 	    4.0000 	   40.0000 	   54.1927 
    1.4115 	   60.2820 	    4.0000 	   40.0000 	   54.2287 
    1.6709 	   60.3160 	    4.0000 	   40.0000 	   54.2627 
    1.4878 	   60.3520 	    4.0000 	   40.0000 	   54.2987 
    1.7929 	   60.3870 	    4.0000 	   40.0000 	   54.3337 
    1.5946 	   60.4210 	    4.0000 	   40.0000 	   54.3677 
    1.6556 	   60.4540 	    4.0000 	   40.0000 	   54.4007 
    1.6709 	   60.4870 	    4.0000 	   40.0000 	   54.4337 
    1.6403 	   60.5200 	    4.0000 	   40.0000 	   54.4667 
    1.7319 	   60.5530 	    4.0000 	   40.0000 	   54.4997 
    1.6403 	   60.5870 	    4.0000 	   40.0000 	   54.5337 
    1.6098 	   60.6210 	    4.0000 	   40.0000 	   54.5677 
    1.8540 	   60.6540 	    4.0000 	   40.0000 	   54.6007 
    1.3657 	   60.6880 	    4.0000 	   40.0000 	   54.6347 
    1.8082 	   60.7220 	    4.0000 	   40.0000 	   54.6687 
    1.7319 	   60.7570 	    4.0000 	   40.0000 	   54.7037 
    1.6709 	   60.7950 	    4.0000 	   40.0000 	   54.7417 
    1.6403 	   60.8320 	    4.0000 	   40.0000 	   54.7787 
    1.7777 	   60.8670 	    4.0000 	   40.0000 	   54.8137 
    1.7777 	   60.9030 	    4.0000 	   40.0000 	   54.8497 
    1.7166 	   60.9400 	    4.0000 	   40.0000 	   54.8867 
    1.9608 	   60.9770 	    4.0000 	   40.0000 	   54.9237 
    1.6098 	   61.0130 	    4.0000 	   40.0000 	   54.9598 
    1.8845 	   61.0490 	    4.0000 	   40.0000 	   54.9958 
    1.7014 	   61.0870 	    4.0000 	   40.0000 	   55.0338 
    1.7014 	   61.1240 	    4.0000 	   40.0000 	   55.0708 
    1.5640 	   61.1620 	    4.0000 	   40.0000 	   55.1088 
    1.9150 	   61.1980 	    4.0000 	   40.0000 	   55.1448 
    1.7624 	   61.2370 	    4.0000 	   40.0000 	   55.1838 
    1.7319 	   61.2730 	    4.0000 	   40.0000 	   55.2198 
    1.8235 	   61.3100 	    4.0000 	   40.0000 	   55.2568 
    1.4267 	   61.3440 	    4.0000 	   40.0000 	   55.2908 
    1.7777 	   61.3800 	    4.0000 	   40.0000 	   55.3268 
    1.4115 	   61.4140 	    4.0000 	   40.0000 	   55.3608 
    1.8540 	   61.4470 	    4.0000 	   40.0000 	   55.3938 
    1.7319 	   61.4820 	    4.0000 	   40.0000 	   55.4288 
    1.6098 	   61.5150 	    4.0000 	   40.0000 	   55.4618 
    1.7624 	   61.5480 	    4.0000 	   40.0000 	   55.4948 
    1.5946 	   61.5810 	    4.0000 	   40.0000 	   55.5278 
    1.7777 	   61.6170 	    4.0000 	   40.0000 	   55.5638 
    1.8235 	   61.6550 	    4.0000 	   40.0000 	   55.6018 
    1.8387 	   61.6920 	    4.0000 	   40.0000 	   55.6388 
    1.8845 	   61.7310 	    4.0000 	   40.0000 	   55.6778 
    1.7472 	   61.7680 	    4.0000 	   40.0000 	   55.7148 
    1.8387 	   61.8070 	    4.0000 	   40.0000 	   55.7538 
    1.7472 	   61.8440 	    4.0000 	   40.0000 	   55.7908 
    1.8387 	   61.8840 	    4.0000 	   40.0000 	   55.8308 
    1.6861 	   61.9220 	    4.0000 	   40.0000 	   55.8688 
    1.6709 	   61.9590 	    4.0000 	   40.0000 	   55.9058 
    1.8387 	   61.9970 	    4.0000 	   40.0000 	   55.9438 
    1.8845 	   62.0340 	    4.0000 	   40.0000 	   55.9808 
    1.9608 	   62.0700 	    4.0000 	   40.0000 	   56.0168 
    1.8235 	   62.1060 	    4.0000 	   40.0000 	   56.0528 
    1.9455 	   62.1400 	    4.0000 	   40.0000 	   56.0868 
    1.8540 	   62.1740 	    4.0000 	   40.0000 	   56.1208 
    1.9455 	   62.2100 	    4.0000 	   40.0000 	   56.1568 
    1.6709 	   62.2460 	    4.0000 	   40.0000 	   56.1928 
    1.8540 	   62.2840 	    4.0000 	   40.0000 	   56.2308 
    1.9303 	   62.3230 	    4.0000 	   40.0000 	   56.2698 
    1.9150 	   62.3570 	    4.0000 	   40.0000 	   56.3038 
    1.8082 	   62.3910 	    4.0000 	   40.0000 	   56.3378 
    2.0523 	   62.4260 	    4.0000 	   40.0000 	   56.3728 
    1.8540 	   62.4610 	    4.0000 	   40.0000 	   56.4078 
    1.8845 	   62.4970 	    4.0000 	   40.0000 	   56.4438 
    1.9760 	   62.5310 	    4.0000 	   40.0000 	   56.4778 
    1.9760 	   62.5640 	    4.0000 	   40.0000 	   56.5108 
    1.7929 	   62.5970 	    4.0000 	   40.0000 	   56.5438 
    2.0066 	   62.6330 	    4.0000 	   40.0000 	   56.5798 
    1.9913 	   62.6660 	    4.0000 	   40.0000 	   56.6128 
    1.9455 	   62.7000 	    4.0000 	   40.0000 	   56.6468 
    1.8387 	   62.7340 	    4.0000 	   40.0000 	   56.6808 
    1.9455 	   62.7670 	    4.0000 	   40.0000 	   56.7139 
    1.8997 	   62.8010 	    4.0000 	   40.0000 	   56.7479 
    2.0523 	   62.8340 	    4.0000 	   40.0000 	   56.7809 
    1.9150 	   62.8710 	    4.0000 	   40.0000 	   56.8179 
    1.8692 	   62.9060 	    4.0000 	   40.0000 	   56.8529 
    1.8387 	   62.9390 	    4.0000 	   40.0000 	   56.8859 
    2.1134 	   62.9740 	    4.0000 	   40.0000 	   56.9209 
    2.0066 	   63.0080 	    4.0000 	   40.0000 	   56.9549 
    1.7472 	   63.0440 	    4.0000 	   40.0000 	   56.9909 
    1.9608 	   63.0800 	    4.0000 	   40.0000 	   57.0269 
    2.0371 	   63.1190 	    4.0000 	   40.0000 	   57.0659 
    1.9913 	   63.1570 	    4.0000 	   40.0000 	   57.1039 
    1.9150 	   63.1960 	    4.0000 	   40.0000 	   57.1429 
    1.8235 	   63.2320 	    4.0000 	   40.0000 	   57.1789 
    1.9760 	   63.2700 	    4.0000 	   40.0000 	   57.2169 
    1.9303 	   63.3070 	    4.0000 	   40.0000 	   57.2539 
    1.9608 	   63.3450 	    4.0000 	   40.0000 	   57.2919 
    2.0371 	   63.3800 	    4.0000 	   40.0000 	   57.3269 
    2.0066 	   63.4150 	    4.0000 	   40.0000 	   57.3619 
    2.0523 	   63.4500 	    4.0000 	   40.0000 	   57.3969 
    1.9913 	   63.4860 	    4.0000 	   40.0000 	   57.4329 
    1.7929 	   63.5190 	    4.0000 	   40.0000 	   57.4659 
    1.8845 	   63.5530 	    4.0000 	   40.0000 	   57.4999 
    1.9760 	   63.5860 	    4.0000 	   40.0000 	   57.5329 
    1.8997 	   63.6190 	    4.0000 	   40.0000 	   57.5659 
    1.9150 	   63.6540 	    4.0000 	   40.0000 	   57.6009 
    1.9913 	   63.6880 	    4.0000 	   40.0000 	   57.6349 
    1.7319 	   63.7250 	    4.0000 	   40.0000 	   57.6719 
    1.8997 	   63.7640 	    4.0000 	   40.0000 	   57.7109 
    2.0066 	   63.7990 	    4.0000 	   40.0000 	   57.7459 
    2.0829 	   63.8320 	    4.0000 	   40.0000 	   57.7789 
    2.0676 	   63.8670 	    4.0000 	   40.0000 	   57.8139 
    2.1897 	   63.9010 	    4.0000 	   40.0000 	   57.8479 
    2.2202 	   63.9340 	    4.0000 	   40.0000 	   57.8809 
    2.2354 	   63.9690 	    4.0000 	   40.0000 	   57.9159 
    2.1134 	   64.0030 	    4.0000 	   40.0000 	   57.9499 
    1.9913 	   64.0390 	    4.0000 	   40.0000 	   57.9859 
    1.9150 	   64.0780 	    4.0000 	   40.0000 	   58.0249 
    2.2049 	   64.1160 	    4.0000 	   40.0000 	   58.0629 
    2.1744 	   64.1540 	    4.0000 	   40.0000 	   58.1009 
    2.0066 	   64.1920 	    4.0000 	   40.0000 	   58.1389 
    2.2965 	   64.2320 	    4.0000 	   40.0000 	   58.1789 
    2.1744 	   64.2690 	    4.0000 	   40.0000 	   58.2159 
    2.0218 	   64.3090 	    4.0000 	   40.0000 	   58.2559 
    2.1286 	   64.3470 	    4.0000 	   40.0000 	   58.2939 
    2.0676 	   64.3820 	    4.0000 	   40.0000 	   58.3289 
    2.0676 	   64.4190 	    4.0000 	   40.0000 	   58.3659 
    2.1439 	   64.4560 	    4.0000 	   40.0000 	   58.4029 
    2.0829 	   64.4920 	    4.0000 	   40.0000 	   58.4389 
    2.1286 	   64.5270 	    4.0000 	   40.0000 	   58.4739 
    2.0676 	   64.5610 	    4.0000 	   40.0000 	   58.5080 
    1.8997 	   64.5950 	    4.0000 	   40.0000 	   58.5420 
    2.0218 	   64.6320 	    4.0000 	   40.0000 	   58.5790 
    2.2660 	   64.6670 	    4.0000 	   40.0000 	   58.6140 
    2.1439 	   64.7000 	    4.0000 	   40.0000 	   58.6470 
    2.0371 	   64.7350 	    4.0000 	   40.0000 	   58.6820 
    2.1286 	   64.7680 	    4.0000 	   40.0000 	   58.7150 
    1.8235 	   64.8020 	    4.0000 	   40.0000 	   58.7490 
    2.2202 	   64.8360 	    4.0000 	   40.0000 	   58.7830 
    2.2354 	   64.8730 	    4.0000 	   40.0000 	   58.8200 
    2.3575 	   64.9110 	    4.0000 	   40.0000 	   58.8580 
    2.3270 	   64.9490 	    4.0000 	   40.0000 	   58.8960 
    2.1744 	   64.9860 	    4.0000 	   40.0000 	   58.9330 
    2.1286 	   65.0240 	    4.0000 	   40.0000 	   58.9710 
    2.1897 	   65.0630 	    4.0000 	   40.0000 	   59.0100 
    2.1592 	   65.0990 	    4.0000 	   40.0000 	   59.0460 
    2.2202 	   65.1370 	    4.0000 	   40.0000 	   59.0840 
    2.1592 	   65.1740 	    4.0000 	   40.0000 	   59.1210 
    2.2660 	   65.2130 	    4.0000 	   40.0000 	   59.1600 
    2.1439 	   65.2500 	    4.0000 	   40.0000 	   59.1970 
    2.1744 	   65.2890 	    4.0000 	   40.0000 	   59.2360 
    2.3270 	   65.3260 	    4.0000 	   40.0000 	   59.2730 
    2.2507 	   65.3630 	    4.0000 	   40.0000 	   59.3100 
    2.1592 	   65.3990 	    4.0000 	   40.0000 	   59.3460 
    2.3728 	   65.4340 	    4.0000 	   40.0000 	   59.3810 
    2.1897 	   65.4700 	    4.0000 	   40.0000 	   59.4170 
    2.1744 	   65.5050 	    4.0000 	   40.0000 	   59.4520 
    2.2202 	   65.5400 	    4.0000 	   40.0000 	   59.4870 
    2.3117 	   65.5740 	    4.0000 	   40.0000 	   59.5210 
    2.2660 	   65.6080 	    4.0000 	   40.0000 	   59.5550 
    2.1134 	   65.6430 	    4.0000 	   40.0000 	   59.5900 
    2.2202 	   65.6810 	    4.0000 	   40.0000 	   59.6280 
    2.2660 	   65.7210 	    4.0000 	   40.0000 	   59.6680 
    2.1286 	   65.7590 	    4.0000 	   40.0000 	   59.7060 
    2.3117 	   65.7990 	    4.0000 	   40.0000 	   59.7460 
    2.2202 	   65.8350 	    4.0000 	   40.0000 	   59.7820 
    2.3117 	   65.8740 	    4.0000 	   40.0000 	   59.8210 
    2.2507 	   65.9130 	    4.0000 	   40.0000 	   59.8590 
    2.3270 	   65.9530 	    4.0000 	   40.0000 	   59.8990 
    2.2507 	   65.9890 	    4.0000 	   40.0000 	   59.9350 
    2.3423 	   66.0280 	    4.0000 	   40.0000 	   59.9740 
    2.3575 	   66.0650 	    4.0000 	   41.0000 	    0.0100 
    2.3270 	   66.1060 	    4.0000 	   41.0000 	    0.0520 
    2.4796 	   66.1440 	    4.0000 	   41.0000 	    0.0900 
    2.4186 	   66.1830 	    4.0000 	   41.0000 	    0.1290 
    2.3880 	   66.2230 	    4.0000 	   41.0000 	    0.1690 
    2.3880 	   66.2630 	    4.0000 	   41.0000 	    0.2090 
    2.4033 	   66.3010 	    4.0000 	   41.0000 	    0.2471 
    2.3728 	   66.3390 	    4.0000 	   41.0000 	    0.2851 
    2.3270 	   66.3770 	    4.0000 	   41.0000 	    0.3231 
    2.4033 	   66.4140 	    4.0000 	   41.0000 	    0.3601 
    2.2202 	   66.4500 	    4.0000 	   41.0000 	    0.3961 
    2.2049 	   66.4850 	    4.0000 	   41.0000 	    0.4311 
    2.2812 	   66.5200 	    4.0000 	   41.0000 	    0.4661 
    2.2354 	   66.5540 	    4.0000 	   41.0000 	    0.5001 
    2.4033 	   66.5870 	    4.0000 	   41.0000 	    0.5331 
    2.3270 	   66.6220 	    4.0000 	   41.0000 	    0.5681 
    2.3880 	   66.6590 	    4.0000 	   41.0000 	    0.6051 
    2.4033 	   66.6950 	    4.0000 	   41.0000 	    0.6411 
    2.2202 	   66.7290 	    4.0000 	   41.0000 	    0.6751 
    2.3880 	   66.7640 	    4.0000 	   41.0000 	    0.7101 
    2.5254 	   66.7990 	    4.0000 	   41.0000 	    0.7451 
    2.2812 	   66.8330 	    4.0000 	   41.0000 	    0.7791 
    2.3423 	   66.8690 	    4.0000 	   41.0000 	    0.8151 
    2.4033 	   66.9050 	    4.0000 	   41.0000 	    0.8511 
    2.3270 	   66.9410 	    4.0000 	   41.0000 	    0.8871 
    2.5101 	   66.9800 	    4.0000 	   41.0000 	    0.9261 
    2.5406 	   67.0180 	    4.0000 	   41.0000 	    0.9641 
    2.2507 	   67.0580 	    4.0000 	   41.0000 	    1.0041 
    2.3423 	   67.0930 	    4.0000 	   41.0000 	    1.0391 
    2.4186 	   67.1270 	    4.0000 	   41.0000 	    1.0731 
    2.5559 	   67.1610 	    4.0000 	   41.0000 	    1.1071 
    2.4491 	   67.1960 	    4.0000 	   41.0000 	    1.1421 
    2.4643 	   67.2350 	    4.0000 	   41.0000 	    1.1811 
    2.4338 	   67.2740 	    4.0000 	   41.0000 	    1.2201 
    2.4796 	   67.3100 	    4.0000 	   41.0000 	    1.2561 
    2.4643 	   67.3450 	    4.0000 	   41.0000 	    1.2911 
    2.6169 	   67.3800 	    4.0000 	   41.0000 	    1.3261 
    2.5101 	   67.4160 	    4.0000 	   41.0000 	    1.3621 
    2.0981 	   67.4530 	    4.0000 	   41.0000 	    1.3991 
    2.6932 	   67.4870 	    4.0000 	   41.0000 	    1.4331 
    2.3880 	   67.5220 	    4.0000 	   41.0000 	    1.4681 
    2.5101 	   67.5570 	    4.0000 	   41.0000 	    1.5031 
    2.4948 	   67.5920 	    4.0000 	   41.0000 	    1.5381 
    2.3423 	   67.6270 	    4.0000 	   41.0000 	    1.5731 
    2.5711 	   67.6610 	    4.0000 	   41.0000 	    1.6071 
    2.4796 	   67.6990 	    4.0000 	   41.0000 	    1.6451 
    2.1439 	   67.7360 	    4.0000 	   41.0000 	    1.6821 
    2.4948 	   67.7730 	    4.0000 	   41.0000 	    1.7191 
    2.6017 	   67.8120 	    4.0000 	   41.0000 	    1.7581 
    2.4796 	   67.8510 	    4.0000 	   41.0000 	    1.7971 
    2.5711 	   67.8890 	    4.0000 	   41.0000 	    1.8351 
    2.5406 	   67.9260 	    4.0000 	   41.0000 	    1.8721 
    2.4643 	   67.9630 	    4.0000 	   41.0000 	    1.9091 
    2.5711 	   68.0030 	    4.0000 	   41.0000 	    1.9491 
    2.5864 	   68.0410 	    4.0000 	   41.0000 	    1.9872 
    2.4186 	   68.0830 	    4.0000 	   41.0000 	    2.0292 
    2.6017 	   68.1220 	    4.0000 	   41.0000 	    2.0682 
    2.6017 	   68.1590 	    4.0000 	   41.0000 	    2.1052 
    2.5864 	   68.1980 	    4.0000 	   41.0000 	    2.1442 
    2.4948 	   68.2350 	    4.0000 	   41.0000 	    2.1812 
    2.6322 	   68.2700 	    4.0000 	   41.0000 	    2.2162 
    2.5711 	   68.3050 	    4.0000 	   41.0000 	    2.2512 
    2.5864 	   68.3390 	    4.0000 	   41.0000 	    2.2852 
    2.6017 	   68.3740 	    4.0000 	   41.0000 	    2.3202 
    2.6017 	   68.4090 	    4.0000 	   41.0000 	    2.3552 
    2.5711 	   68.4440 	    4.0000 	   41.0000 	    2.3902 
    2.6627 	   68.4790 	    4.0000 	   41.0000 	    2.4252 
    2.5254 	   68.5160 	    4.0000 	   41.0000 	    2.4622 
    2.5559 	   68.5510 	    4.0000 	   41.0000 	    2.4972 
    2.5254 	   68.5860 	    4.0000 	   41.0000 	    2.5322 
    2.8763 	   68.6240 	    4.0000 	   41.0000 	    2.5702 
    2.6474 	   68.6610 	    4.0000 	   41.0000 	    2.6072 
    2.5711 	   68.6980 	    4.0000 	   41.0000 	    2.6442 
    2.5864 	   68.7380 	    4.0000 	   41.0000 	    2.6842 
    2.6169 	   68.7780 	    4.0000 	   41.0000 	    2.7242 
    2.5864 	   68.8180 	    4.0000 	   41.0000 	    2.7642 
    2.7085 	   68.8560 	    4.0000 	   41.0000 	    2.8022 
    2.2965 	   68.8960 	    4.0000 	   41.0000 	    2.8422 
    2.7543 	   68.9350 	    4.0000 	   41.0000 	    2.8812 
    2.7390 	   68.9750 	    4.0000 	   41.0000 	    2.9212 
    2.6169 	   69.0130 	    4.0000 	   41.0000 	    2.9592 
    2.5559 	   69.0520 	    4.0000 	   41.0000 	    2.9982 
    2.7237 	   69.0910 	    4.0000 	   41.0000 	    3.0372 
    2.6780 	   69.1300 	    4.0000 	   41.0000 	    3.0762 
    2.7695 	   69.1690 	    4.0000 	   41.0000 	    3.1152 
    2.7543 	   69.2080 	    4.0000 	   41.0000 	    3.1542 
    2.7695 	   69.2460 	    4.0000 	   41.0000 	    3.1922 
    2.7085 	   69.2840 	    4.0000 	   41.0000 	    3.2302 
    2.6780 	   69.3220 	    4.0000 	   41.0000 	    3.2682 
    2.4338 	   69.3610 	    4.0000 	   41.0000 	    3.3072 
    2.8153 	   69.3950 	    4.0000 	   41.0000 	    3.3412 
    2.6474 	   69.4310 	    4.0000 	   41.0000 	    3.3772 
    2.7695 	   69.4680 	    4.0000 	   41.0000 	    3.4142 
    2.8153 	   69.5040 	    4.0000 	   41.0000 	    3.4502 
    2.8153 	   69.5380 	    4.0000 	   41.0000 	    3.4842 
    2.8458 	   69.5720 	    4.0000 	   41.0000 	    3.5182 
    2.5864 	   69.6060 	    4.0000 	   41.0000 	    3.5522 
    2.8153 	   69.6420 	    4.0000 	   41.0000 	    3.5882 
    2.9526 	   69.6750 	    4.0000 	   41.0000 	    3.6212 
    2.7390 	   69.7100 	    4.0000 	   41.0000 	    3.6562 
    2.7695 	   69.7440 	    4.0000 	   41.0000 	    3.6902 
    2.9679 	   69.7780 	    4.0000 	   41.0000 	    3.7243 
    2.7085 	   69.8140 	    4.0000 	   41.0000 	    3.7603 
    2.9068 	   69.8540 	    4.0000 	   41.0000 	    3.8003 
    2.8611 	   69.8900 	    4.0000 	   41.0000 	    3.8363 
    2.8153 	   69.9300 	    4.0000 	   41.0000 	    3.8763 
    2.7848 	   69.9700 	    4.0000 	   41.0000 	    3.9163 
    2.8611 	   70.0090 	    4.0000 	   41.0000 	    3.9553 
    2.9679 	   70.0490 	    4.0000 	   41.0000 	    3.9953 
    2.8153 	   70.0890 	    4.0000 	   41.0000 	    4.0353 
    2.9526 	   70.1250 	    4.0000 	   41.0000 	    4.0713 
    2.9374 	   70.1610 	    4.0000 	   41.0000 	    4.1073 
    2.7848 	   70.1960 	    4.0000 	   41.0000 	    4.1423 
    2.8153 	   70.2310 	    4.0000 	   41.0000 	    4.1773 
    2.8153 	   70.2670 	    4.0000 	   41.0000 	    4.2133 
    3.0289 	   70.3030 	    4.0000 	   41.0000 	    4.2493 
    2.8611 	   70.3380 	    4.0000 	   41.0000 	    4.2843 
    2.8153 	   70.3740 	    4.0000 	   41.0000 	    4.3203 
    2.9374 	   70.4090 	    4.0000 	   41.0000 	    4.3553 
    2.9068 	   70.4440 	    4.0000 	   41.0000 	    4.3903 
    2.8000 	   70.4800 	    4.0000 	   41.0000 	    4.4263 
    2.9831 	   70.5140 	    4.0000 	   41.0000 	    4.4603 
    2.8458 	   70.5510 	    4.0000 	   41.0000 	    4.4973 
    2.8611 	   70.5870 	    4.0000 	   41.0000 	    4.5333 
    3.0594 	   70.6230 	    4.0000 	   41.0000 	    4.5693 
    2.9068 	   70.6570 	    4.0000 	   41.0000 	    4.6033 
    2.9526 	   70.6920 	    4.0000 	   41.0000 	    4.6383 
    2.8763 	   70.7290 	    4.0000 	   41.0000 	    4.6753 
    2.8763 	   70.7630 	    4.0000 	   41.0000 	    4.7093 
    2.9831 	   70.8010 	    4.0000 	   41.0000 	    4.7473 
    3.1052 	   70.8390 	    4.0000 	   41.0000 	    4.7853 
    2.9221 	   70.8760 	    4.0000 	   41.0000 	    4.8223 
    2.9068 	   70.9130 	    4.0000 	   41.0000 	    4.8593 
    3.2120 	   70.9520 	    4.0000 	   41.0000 	    4.8983 
    3.0137 	   70.9870 	    4.0000 	   41.0000 	    4.9333 
    3.1510 	   71.0230 	    4.0000 	   41.0000 	    4.9693 
    3.0137 	   71.0580 	    4.0000 	   41.0000 	    5.0043 
    3.0137 	   71.0940 	    4.0000 	   41.0000 	    5.0403 
    2.9374 	   71.1300 	    4.0000 	   41.0000 	    5.0763 
    2.8763 	   71.1650 	    4.0000 	   41.0000 	    5.1113 
    3.0900 	   71.2020 	    4.0000 	   41.0000 	    5.1483 
    3.0900 	   71.2380 	    4.0000 	   41.0000 	    5.1843 
    2.9984 	   71.2730 	    4.0000 	   41.0000 	    5.2193 
    3.1052 	   71.3070 	    4.0000 	   41.0000 	    5.2533 
    3.0594 	   71.3440 	    4.0000 	   41.0000 	    5.2903 
    3.1357 	   71.3800 	    4.0000 	   41.0000 	    5.3263 
    3.0442 	   71.4140 	    4.0000 	   41.0000 	    5.3603 
    3.0594 	   71.4500 	    4.0000 	   41.0000 	    5.3963 
    3.0900 	   71.4860 	    4.0000 	   41.0000 	    5.4323 
    3.0900 	   71.5210 	    4.0000 	   41.0000 	    5.4674 
    3.0289 	   71.5570 	    4.0000 	   41.0000 	    5.5034 
    3.0137 	   71.5940 	    4.0000 	   41.0000 	    5.5404 
    3.1357 	   71.6290 	    4.0000 	   41.0000 	    5.5754 
    3.0747 	   71.6640 	    4.0000 	   41.0000 	    5.6104 
    3.1510 	   71.6990 	    4.0000 	   41.0000 	    5.6454 
    3.1510 	   71.7330 	    4.0000 	   41.0000 	    5.6794 
    3.1052 	   71.7680 	    4.0000 	   41.0000 	    5.7144 
    3.1662 	   71.8060 	    4.0000 	   41.0000 	    5.7524 
    3.1968 	   71.8440 	    4.0000 	   41.0000 	    5.7904 
    3.0442 	   71.8840 	    4.0000 	   41.0000 	    5.8304 
    3.1052 	   71.9230 	    4.0000 	   41.0000 	    5.8694 
    3.0900 	   71.9620 	    4.0000 	   41.0000 	    5.9084 
    3.0900 	   72.0020 	    4.0000 	   41.0000 	    5.9484 
    3.1968 	   72.0400 	    4.0000 	   41.0000 	    5.9864 
    3.1510 	   72.0820 	    4.0000 	   41.0000 	    6.0284 
    3.2578 	   72.1220 	    4.0000 	   41.0000 	    6.0684 
    3.3341 	   72.1610 	    4.0000 	   41.0000 	    6.1074 
    3.2273 	   72.2020 	    4.0000 	   41.0000 	    6.1484 
    3.3494 	   72.2400 	    4.0000 	   41.0000 	    6.1864 
    3.3646 	   72.2790 	    4.0000 	   41.0000 	    6.2254 
    2.9374 	   72.3190 	    4.0000 	   41.0000 	    6.2654 
    3.3951 	   72.3580 	    4.0000 	   41.0000 	    6.3044 
    3.1205 	   72.4000 	    4.0000 	   41.0000 	    6.3464 
    3.4409 	   72.4380 	    4.0000 	   41.0000 	    6.3844 
    2.9984 	   72.4750 	    4.0000 	   41.0000 	    6.4214 
    3.2425 	   72.5130 	    4.0000 	   41.0000 	    6.4594 
    3.3188 	   72.5490 	    4.0000 	   41.0000 	    6.4954 
    3.2425 	   72.5850 	    4.0000 	   41.0000 	    6.5314 
    3.1052 	   72.6210 	    4.0000 	   41.0000 	    6.5674 
    3.3036 	   72.6570 	    4.0000 	   41.0000 	    6.6034 
    3.1510 	   72.6900 	    4.0000 	   41.0000 	    6.6364 
    3.3646 	   72.7240 	    4.0000 	   41.0000 	    6.6704 
    3.2883 	   72.7620 	    4.0000 	   41.0000 	    6.7084 
    3.1052 	   72.8020 	    4.0000 	   41.0000 	    6.7484 
    3.2731 	   72.8390 	    4.0000 	   41.0000 	    6.7854 
    3.4409 	   72.8800 	    4.0000 	   41.0000 	    6.8264 
    3.3799 	   72.9210 	    4.0000 	   41.0000 	    6.8674 
    3.3188 	   72.9610 	    4.0000 	   41.0000 	    6.9074 
    3.3951 	   72.9980 	    4.0000 	   41.0000 	    6.9444 
    3.4257 	   73.0360 	    4.0000 	   41.0000 	    6.9824 
    3.4257 	   73.0750 	    4.0000 	   41.0000 	    7.0214 
    3.3036 	   73.1170 	    4.0000 	   41.0000 	    7.0634 
    3.3646 	   73.1560 	    4.0000 	   41.0000 	    7.1024 
    3.3494 	   73.1940 	    4.0000 	   41.0000 	    7.1404 
    3.4867 	   73.2310 	    4.0000 	   41.0000 	    7.1774 
    3.4409 	   73.2680 	    4.0000 	   41.0000 	    7.2145 
    3.3646 	   73.3040 	    4.0000 	   41.0000 	    7.2505 
    3.3494 	   73.3390 	    4.0000 	   41.0000 	    7.2855 
    3.3494 	   73.3740 	    4.0000 	   41.0000 	    7.3205 
    3.4867 	   73.4140 	    4.0000 	   41.0000 	    7.3605 
    3.5325 	   73.4510 	    4.0000 	   41.0000 	    7.3975 
    3.4867 	   73.4890 	    4.0000 	   41.0000 	    7.4355 
    3.3036 	   73.5280 	    4.0000 	   41.0000 	    7.4745 
    3.4867 	   73.5640 	    4.0000 	   41.0000 	    7.5105 
    3.6088 	   73.6000 	    4.0000 	   41.0000 	    7.5465 
    3.4257 	   73.6370 	    4.0000 	   41.0000 	    7.5835 
    3.6240 	   73.6740 	    4.0000 	   41.0000 	    7.6205 
    3.4257 	   73.7080 	    4.0000 	   41.0000 	    7.6545 
    3.4562 	   73.7440 	    4.0000 	   41.0000 	    7.6905 
    3.4409 	   73.7870 	    4.0000 	   41.0000 	    7.7335 
    3.2731 	   73.8230 	    4.0000 	   41.0000 	    7.7695 
    3.5935 	   73.8580 	    4.0000 	   41.0000 	    7.8045 
    3.4257 	   73.8950 	    4.0000 	   41.0000 	    7.8415 
    3.7156 	   73.9300 	    4.0000 	   41.0000 	    7.8765 
    3.5172 	   73.9660 	    4.0000 	   41.0000 	    7.9125 
    3.5019 	   74.0020 	    4.0000 	   41.0000 	    7.9485 
    3.5477 	   74.0390 	    4.0000 	   41.0000 	    7.9855 
    3.6088 	   74.0770 	    4.0000 	   41.0000 	    8.0235 
    3.5630 	   74.1130 	    4.0000 	   41.0000 	    8.0595 
    3.7003 	   74.1520 	    4.0000 	   41.0000 	    8.0985 
    3.6240 	   74.1910 	    4.0000 	   41.0000 	    8.1375 
    3.4257 	   74.2310 	    4.0000 	   41.0000 	    8.1775 
    3.6393 	   74.2670 	    4.0000 	   41.0000 	    8.2135 
    3.4562 	   74.3030 	    4.0000 	   41.0000 	    8.2495 
    3.7156 	   74.3400 	    4.0000 	   41.0000 	    8.2865 
    3.5935 	   74.3790 	    4.0000 	   41.0000 	    8.3255 
    3.5782 	   74.4140 	    4.0000 	   41.0000 	    8.3605 
    3.6698 	   74.4500 	    4.0000 	   41.0000 	    8.3965 
    3.6240 	   74.4860 	    4.0000 	   41.0000 	    8.4325 
    3.7919 	   74.5230 	    4.0000 	   41.0000 	    8.4695 
    3.4409 	   74.5630 	    4.0000 	   41.0000 	    8.5095 
    3.7613 	   74.6000 	    4.0000 	   41.0000 	    8.5465 
    3.5477 	   74.6360 	    4.0000 	   41.0000 	    8.5825 
    3.6240 	   74.6720 	    4.0000 	   41.0000 	    8.6185 
    3.6393 	   74.7060 	    4.0000 	   41.0000 	    8.6525 
    3.6851 	   74.7410 	    4.0000 	   41.0000 	    8.6875 
    3.6088 	   74.7780 	    4.0000 	   41.0000 	    8.7245 
    3.6545 	   74.8160 	    4.0000 	   41.0000 	    8.7625 
    3.7308 	   74.8510 	    4.0000 	   41.0000 	    8.7975 
    3.7919 	   74.8880 	    4.0000 	   41.0000 	    8.8345 
    3.7613 	   74.9230 	    4.0000 	   41.0000 	    8.8695 
    3.6088 	   74.9590 	    4.0000 	   41.0000 	    8.9055 
    3.7919 	   74.9980 	    4.0000 	   41.0000 	    8.9445 
    3.4409 	   75.0360 	    4.0000 	   41.0000 	    8.9826 
    3.7766 	   75.0790 	    4.0000 	   41.0000 	    9.0256 
    3.6698 	   75.1180 	    4.0000 	   41.0000 	    9.0646 
    3.8224 	   75.1590 	    4.0000 	   41.0000 	    9.1056 
    3.8224 	   75.1990 	    4.0000 	   41.0000 	    9.1456 
    3.6698 	   75.2380 	    4.0000 	   41.0000 	    9.1846 
    3.8224 	   75.2750 	    4.0000 	   41.0000 	    9.2216 
    3.8834 	   75.3160 	    4.0000 	   41.0000 	    9.2626 
    3.8224 	   75.3540 	    4.0000 	   41.0000 	    9.3006 
    3.8987 	   75.3920 	    4.0000 	   41.0000 	    9.3386 
    3.7003 	   75.4320 	    4.0000 	   41.0000 	    9.3786 
    3.4562 	   75.4710 	    4.0000 	   41.0000 	    9.4176 
    3.8834 	   75.5090 	    4.0000 	   41.0000 	    9.4556 
    3.8682 	   75.5460 	    4.0000 	   41.0000 	    9.4926 
    3.8529 	   75.5810 	    4.0000 	   41.0000 	    9.5276 
    3.9750 	   75.6200 	    4.0000 	   41.0000 	    9.5666 
    3.8987 	   75.6570 	    4.0000 	   41.0000 	    9.6036 
    3.8224 	   75.6930 	    4.0000 	   41.0000 	    9.6396 
    3.9139 	   75.7280 	    4.0000 	   41.0000 	    9.6746 
    3.9139 	   75.7650 	    4.0000 	   41.0000 	    9.7116 
    3.7003 	   75.8070 	    4.0000 	   41.0000 	    9.7536 
    3.9750 	   75.8460 	    4.0000 	   41.0000 	    9.7926 
    4.0208 	   75.8840 	    4.0000 	   41.0000 	    9.8306 
    3.9292 	   75.9230 	    4.0000 	   41.0000 	    9.8696 
    3.8834 	   75.9620 	    4.0000 	   41.0000 	    9.9086 
    3.8834 	   76.0030 	    4.0000 	   41.0000 	    9.9496 
    4.0513 	   76.0400 	    4.0000 	   41.0000 	    9.9866 
    3.8071 	   76.0820 	    4.0000 	   41.0000 	   10.0286 
    4.0055 	   76.1210 	    4.0000 	   41.0000 	   10.0676 
    3.9597 	   76.1600 	    4.0000 	   41.0000 	   10.1066 
    3.9902 	   76.1990 	    4.0000 	   41.0000 	   10.1456 
    3.9750 	   76.2380 	    4.0000 	   41.0000 	   10.1846 
    4.0208 	   76.2750 	    4.0000 	   41.0000 	   10.2216 
    4.0055 	   76.3140 	    4.0000 	   41.0000 	   10.2606 
    4.0360 	   76.3490 	    4.0000 	   41.0000 	   10.2956 
    4.0360 	   76.3880 	    4.0000 	   41.0000 	   10.3346 
    3.9445 	   76.4270 	    4.0000 	   41.0000 	   10.3736 
    4.0360 	   76.4660 	    4.0000 	   41.0000 	   10.4126 
    3.9597 	   76.5040 	    4.0000 	   41.0000 	   10.4506 
    4.0665 	   76.5410 	    4.0000 	   41.0000 	   10.4876 
    4.0055 	   76.5770 	    4.0000 	   41.0000 	   10.5236 
    4.1428 	   76.6120 	    4.0000 	   41.0000 	   10.5586 
    3.8834 	   76.6480 	    4.0000 	   41.0000 	   10.5946 
    4.1428 	   76.6850 	    4.0000 	   41.0000 	   10.6316 
    4.1276 	   76.7200 	    4.0000 	   41.0000 	   10.6666 
    4.0818 	   76.7550 	    4.0000 	   41.0000 	   10.7017 
    4.1886 	   76.7930 	    4.0000 	   41.0000 	   10.7397 
    4.0665 	   76.8330 	    4.0000 	   41.0000 	   10.7797 
    4.1123 	   76.8720 	    4.0000 	   41.0000 	   10.8187 
    4.0208 	   76.9150 	    4.0000 	   41.0000 	   10.8617 
    4.0513 	   76.9540 	    4.0000 	   41.0000 	   10.9007 
    4.1733 	   76.9920 	    4.0000 	   41.0000 	   10.9387 
    4.3107 	   77.0330 	    4.0000 	   41.0000 	   10.9797 
    4.1581 	   77.0730 	    4.0000 	   41.0000 	   11.0197 
    4.1428 	   77.1120 	    4.0000 	   41.0000 	   11.0587 
    4.1428 	   77.1540 	    4.0000 	   41.0000 	   11.1007 
    4.1276 	   77.1930 	    4.0000 	   41.0000 	   11.1387 
    4.1123 	   77.2290 	    4.0000 	   41.0000 	   11.1757 
    4.1886 	   77.2650 	    4.0000 	   41.0000 	   11.2117 
    3.8682 	   77.3010 	    4.0000 	   41.0000 	   11.2477 
    4.1123 	   77.3380 	    4.0000 	   41.0000 	   11.2847 
    4.2344 	   77.3740 	    4.0000 	   41.0000 	   11.3207 
    4.1886 	   77.4120 	    4.0000 	   41.0000 	   11.3587 
    4.2649 	   77.4490 	    4.0000 	   41.0000 	   11.3957 
    4.2191 	   77.4840 	    4.0000 	   41.0000 	   11.4307 
    4.2344 	   77.5200 	    4.0000 	   41.0000 	   11.4667 
    4.4327 	   77.5570 	    4.0000 	   41.0000 	   11.5037 
    4.2039 	   77.5920 	    4.0000 	   41.0000 	   11.5387 
    4.1886 	   77.6280 	    4.0000 	   41.0000 	   11.5747 
    4.2649 	   77.6630 	    4.0000 	   41.0000 	   11.6097 
    4.3412 	   77.7010 	    4.0000 	   41.0000 	   11.6477 
    4.2191 	   77.7350 	    4.0000 	   41.0000 	   11.6817 
    4.3259 	   77.7700 	    4.0000 	   41.0000 	   11.7167 
    4.2649 	   77.8070 	    4.0000 	   41.0000 	   11.7537 
    4.1581 	   77.8470 	    4.0000 	   41.0000 	   11.7937 
    4.3107 	   77.8870 	    4.0000 	   41.0000 	   11.8337 
    4.2496 	   77.9270 	    4.0000 	   41.0000 	   11.8737 
    4.2802 	   77.9660 	    4.0000 	   41.0000 	   11.9127 
    4.3565 	   78.0070 	    4.0000 	   41.0000 	   11.9537 
    4.1123 	   78.0460 	    4.0000 	   41.0000 	   11.9927 
    4.2496 	   78.0910 	    4.0000 	   41.0000 	   12.0377 
    3.9750 	   78.1310 	    4.0000 	   41.0000 	   12.0777 
    4.0818 	   78.1690 	    4.0000 	   41.0000 	   12.1157 
    4.0360 	   78.2100 	    4.0000 	   41.0000 	   12.1567 
    3.9445 	   78.2490 	    4.0000 	   41.0000 	   12.1957 
    3.9292 	   78.2910 	    4.0000 	   41.0000 	   12.2377 
    3.7613 	   78.3310 	    4.0000 	   41.0000 	   12.2777 
    3.8682 	   78.3750 	    4.0000 	   41.0000 	   12.3207 
    3.7156 	   78.4150 	    4.0000 	   41.0000 	   12.3617 
    3.7003 	   78.4560 	    4.0000 	   41.0000 	   12.4027 
    3.8682 	   78.4930 	    4.0000 	   41.0000 	   12.4397 
    3.7613 	   78.5310 	    4.0000 	   41.0000 	   12.4778 
    3.7156 	   78.5680 	    4.0000 	   41.0000 	   12.5148 
    3.7003 	   78.6050 	    4.0000 	   41.0000 	   12.5518 
    3.6851 	   78.6430 	    4.0000 	   41.0000 	   12.5898 
    3.5935 	   78.6810 	    4.0000 	   41.0000 	   12.6278 
    3.4867 	   78.7160 	    4.0000 	   41.0000 	   12.6628 
    3.6393 	   78.7510 	    4.0000 	   41.0000 	   12.6978 
    3.6545 	   78.7880 	    4.0000 	   41.0000 	   12.7348 
    3.5477 	   78.8250 	    4.0000 	   41.0000 	   12.7718 
    3.4257 	   78.8640 	    4.0000 	   41.0000 	   12.8108 
    3.4714 	   78.9030 	    4.0000 	   41.0000 	   12.8498 
    3.3646 	   78.9430 	    4.0000 	   41.0000 	   12.8898 
    3.4104 	   78.9840 	    4.0000 	   41.0000 	   12.9308 
    3.4409 	   79.0260 	    4.0000 	   41.0000 	   12.9728 
    3.5477 	   79.0650 	    4.0000 	   41.0000 	   13.0118 
    3.4562 	   79.1060 	    4.0000 	   41.0000 	   13.0528 
    3.2883 	   79.1470 	    4.0000 	   41.0000 	   13.0938 
    3.3494 	   79.1850 	    4.0000 	   41.0000 	   13.1318 
    3.4257 	   79.2220 	    4.0000 	   41.0000 	   13.1688 
    3.1205 	   79.2590 	    4.0000 	   41.0000 	   13.2058 
    3.3341 	   79.2950 	    4.0000 	   41.0000 	   13.2418 
    3.3341 	   79.3320 	    4.0000 	   41.0000 	   13.2788 
    3.4409 	   79.3720 	    4.0000 	   41.0000 	   13.3188 
    3.3036 	   79.4120 	    4.0000 	   41.0000 	   13.3588 
    3.2731 	   79.4530 	    4.0000 	   41.0000 	   13.3998 
    3.2731 	   79.4930 	    4.0000 	   41.0000 	   13.4398 
    3.3646 	   79.5320 	    4.0000 	   41.0000 	   13.4788 
    3.1815 	   79.5710 	    4.0000 	   41.0000 	   13.5178 
    3.1968 	   79.6080 	    4.0000 	   41.0000 	   13.5548 
    3.1662 	   79.6450 	    4.0000 	   41.0000 	   13.5918 
    3.1205 	   79.6810 	    4.0000 	   41.0000 	   13.6278 
    3.1205 	   79.7160 	    4.0000 	   41.0000 	   13.6628 
    3.0747 	   79.7510 	    4.0000 	   41.0000 	   13.6978 
    3.1205 	   79.7870 	    4.0000 	   41.0000 	   13.7338 
    3.0289 	   79.8280 	    4.0000 	   41.0000 	   13.7748 
    3.0594 	   79.8660 	    4.0000 	   41.0000 	   13.8128 
    3.1205 	   79.9020 	    4.0000 	   41.0000 	   13.8488 
    3.0289 	   79.9390 	    4.0000 	   41.0000 	   13.8858 
    3.1205 	   79.9750 	    4.0000 	   41.0000 	   13.9218 
    2.9679 	   80.0120 	    4.0000 	   41.0000 	   13.9578 
    2.8305 	   80.0480 	    4.0000 	   41.0000 	   13.9948 
    2.9679 	   80.0870 	    4.0000 	   41.0000 	   14.0338 
    3.0900 	   80.1250 	    4.0000 	   41.0000 	   14.0718 
    2.9068 	   80.1670 	    4.0000 	   41.0000 	   14.1138 
    3.1052 	   80.2060 	    4.0000 	   41.0000 	   14.1528 
    2.9984 	   80.2450 	    4.0000 	   41.0000 	   14.1918 
    3.0594 	   80.2850 	    4.0000 	   41.0000 	   14.2319 
    2.9679 	   80.3260 	    4.0000 	   41.0000 	   14.2729 
    2.9068 	   80.3660 	    4.0000 	   41.0000 	   14.3129 
    2.8458 	   80.4070 	    4.0000 	   41.0000 	   14.3539 
    2.9526 	   80.4490 	    4.0000 	   41.0000 	   14.3959 
    2.8153 	   80.4880 	    4.0000 	   41.0000 	   14.4349 
    2.7695 	   80.5240 	    4.0000 	   41.0000 	   14.4709 
    2.7390 	   80.5620 	    4.0000 	   41.0000 	   14.5089 
    2.7085 	   80.5990 	    4.0000 	   41.0000 	   14.5459 
    2.5559 	   80.6370 	    4.0000 	   41.0000 	   14.5839 
    2.6474 	   80.6760 	    4.0000 	   41.0000 	   14.6229 
    2.6932 	   80.7110 	    4.0000 	   41.0000 	   14.6579 
    2.8305 	   80.7460 	    4.0000 	   41.0000 	   14.6929 
    2.9068 	   80.7810 	    4.0000 	   41.0000 	   14.7279 
    2.7848 	   80.8190 	    4.0000 	   41.0000 	   14.7659 
    2.6780 	   80.8570 	    4.0000 	   41.0000 	   14.8039 
    2.7237 	   80.8970 	    4.0000 	   41.0000 	   14.8439 
    2.6780 	   80.9340 	    4.0000 	   41.0000 	   14.8809 
    2.9221 	   80.9750 	    4.0000 	   41.0000 	   14.9219 
    2.7085 	   81.0160 	    4.0000 	   41.0000 	   14.9629 
    2.6169 	   81.0550 	    4.0000 	   41.0000 	   15.0019 
    2.7237 	   81.0950 	    4.0000 	   41.0000 	   15.0409 
    2.5864 	   81.1310 	    4.0000 	   41.0000 	   15.0779 
    2.6322 	   81.1670 	    4.0000 	   41.0000 	   15.1139 
    2.5711 	   81.2030 	    4.0000 	   41.0000 	   15.1499 
    2.5559 	   81.2410 	    4.0000 	   41.0000 	   15.1879 
    2.5101 	   81.2790 	    4.0000 	   41.0000 	   15.2259 
    2.5711 	   81.3150 	    4.0000 	   41.0000 	   15.2619 
    2.7390 	   81.3500 	    4.0000 	   41.0000 	   15.2969 
    2.5864 	   81.3870 	    4.0000 	   41.0000 	   15.3339 
    2.6322 	   81.4260 	    4.0000 	   41.0000 	   15.3729 
    2.4796 	   81.4670 	    4.0000 	   41.0000 	   15.4139 
    2.5254 	   81.5040 	    4.0000 	   41.0000 	   15.4509 
    2.6169 	   81.5450 	    4.0000 	   41.0000 	   15.4919 
    2.7237 	   81.5810 	    4.0000 	   41.0000 	   15.5279 
    2.5254 	   81.6190 	    4.0000 	   41.0000 	   15.5659 
    2.6017 	   81.6590 	    4.0000 	   41.0000 	   15.6059 
    2.5559 	   81.6950 	    4.0000 	   41.0000 	   15.6419 
    2.4338 	   81.7300 	    4.0000 	   41.0000 	   15.6769 
    2.4948 	   81.7650 	    4.0000 	   41.0000 	   15.7119 
    2.5406 	   81.8010 	    4.0000 	   41.0000 	   15.7479 
    2.4796 	   81.8380 	    4.0000 	   41.0000 	   15.7849 
    2.4796 	   81.8750 	    4.0000 	   41.0000 	   15.8219 
    2.5406 	   81.9110 	    4.0000 	   41.0000 	   15.8579 
    2.4796 	   81.9510 	    4.0000 	   41.0000 	   15.8979 
    2.3575 	   81.9900 	    4.0000 	   41.0000 	   15.9369 
    2.4338 	   82.0330 	    4.0000 	   41.0000 	   15.9800 
    2.4033 	   82.0720 	    4.0000 	   41.0000 	   16.0190 
    2.4643 	   82.1160 	    4.0000 	   41.0000 	   16.0630 
    2.3117 	   82.1570 	    4.0000 	   41.0000 	   16.1040 
    2.6169 	   82.1970 	    4.0000 	   41.0000 	   16.1440 
    2.3575 	   82.2370 	    4.0000 	   41.0000 	   16.1840 
    2.4948 	   82.2770 	    4.0000 	   41.0000 	   16.2240 
    2.5254 	   82.3180 	    4.0000 	   41.0000 	   16.2650 
    2.3880 	   82.3570 	    4.0000 	   41.0000 	   16.3040 
    2.3728 	   82.3980 	    4.0000 	   41.0000 	   16.3450 
    2.4643 	   82.4360 	    4.0000 	   41.0000 	   16.3830 
    2.3575 	   82.4720 	    4.0000 	   41.0000 	   16.4190 
    2.4948 	   82.5090 	    4.0000 	   41.0000 	   16.4560 
    2.2660 	   82.5460 	    4.0000 	   41.0000 	   16.4930 
    2.3880 	   82.5870 	    4.0000 	   41.0000 	   16.5340 
    2.1897 	   82.6250 	    4.0000 	   41.0000 	   16.5720 
    2.3423 	   82.6670 	    4.0000 	   41.0000 	   16.6140 
    2.2354 	   82.7030 	    4.0000 	   41.0000 	   16.6500 
    2.5254 	   82.7400 	    4.0000 	   41.0000 	   16.6870 
    2.3270 	   82.7780 	    4.0000 	   41.0000 	   16.7250 
    2.2507 	   82.8150 	    4.0000 	   41.0000 	   16.7620 
    2.2507 	   82.8550 	    4.0000 	   41.0000 	   16.8020 
    2.4643 	   82.8960 	    4.0000 	   41.0000 	   16.8430 
    2.2660 	   82.9370 	    4.0000 	   41.0000 	   16.8840 
    2.2507 	   82.9780 	    4.0000 	   41.0000 	   16.9250 
    2.2660 	   83.0150 	    4.0000 	   41.0000 	   16.9620 
    2.4491 	   83.0520 	    4.0000 	   41.0000 	   16.9990 
    2.2507 	   83.0880 	    4.0000 	   41.0000 	   17.0350 
    2.2049 	   83.1270 	    4.0000 	   41.0000 	   17.0740 
    2.2660 	   83.1640 	    4.0000 	   41.0000 	   17.1110 
    2.2812 	   83.2010 	    4.0000 	   41.0000 	   17.1480 
    2.2354 	   83.2390 	    4.0000 	   41.0000 	   17.1860 
    2.1439 	   83.2780 	    4.0000 	   41.0000 	   17.2250 
    2.2507 	   83.3130 	    4.0000 	   41.0000 	   17.2600 
    2.3270 	   83.3500 	    4.0000 	   41.0000 	   17.2970 
    2.2812 	   83.3880 	    4.0000 	   41.0000 	   17.3340 
    2.2354 	   83.4230 	    4.0000 	   41.0000 	   17.3690 
    2.2049 	   83.4610 	    4.0000 	   41.0000 	   17.4070 
    2.3117 	   83.4990 	    4.0000 	   41.0000 	   17.4450 
    2.1897 	   83.5350 	    4.0000 	   41.0000 	   17.4810 
    2.1286 	   83.5720 	    4.0000 	   41.0000 	   17.5180 
    2.1134 	   83.6110 	    4.0000 	   41.0000 	   17.5570 
    2.2812 	   83.6480 	    4.0000 	   41.0000 	   17.5940 
    2.1134 	   83.6870 	    4.0000 	   41.0000 	   17.6330 
    2.1439 	   83.7240 	    4.0000 	   41.0000 	   17.6700 
    2.2507 	   83.7600 	    4.0000 	   41.0000 	   17.7061 
    2.1134 	   83.7950 	    4.0000 	   41.0000 	   17.7411 
    2.1134 	   83.8330 	    4.0000 	   41.0000 	   17.7791 
    2.0981 	   83.8710 	    4.0000 	   41.0000 	   17.8171 
    2.0981 	   83.9100 	    4.0000 	   41.0000 	   17.8561 
    2.2202 	   83.9500 	    4.0000 	   41.0000 	   17.8961 
    2.1134 	   83.9920 	    4.0000 	   41.0000 	   17.9381 
    2.0829 	   84.0340 	    4.0000 	   41.0000 	   17.9801 
    2.0523 	   84.0750 	    4.0000 	   41.0000 	   18.0211 
    2.2049 	   84.1190 	    4.0000 	   41.0000 	   18.0651 
    2.0371 	   84.1600 	    4.0000 	   41.0000 	   18.1061 
    2.0981 	   84.2010 	    4.0000 	   41.0000 	   18.1471 
    2.0371 	   84.2410 	    4.0000 	   41.0000 	   18.1871 
    2.2354 	   84.2840 	    4.0000 	   41.0000 	   18.2301 
    2.0371 	   84.3240 	    4.0000 	   41.0000 	   18.2701 
    1.8082 	   84.3670 	    4.0000 	   41.0000 	   18.3131 
    2.0066 	   84.4070 	    4.0000 	   41.0000 	   18.3531 
    1.9455 	   84.4460 	    4.0000 	   41.0000 	   18.3921 
    2.0523 	   84.4850 	    4.0000 	   41.0000 	   18.4311 
    2.0218 	   84.5240 	    4.0000 	   41.0000 	   18.4701 
    2.0066 	   84.5640 	    4.0000 	   41.0000 	   18.5101 
    1.7472 	   84.6010 	    4.0000 	   41.0000 	   18.5471 
    1.9760 	   84.6370 	    4.0000 	   41.0000 	   18.5831 
    2.1134 	   84.6750 	    4.0000 	   41.0000 	   18.6211 
    2.1897 	   84.7110 	    4.0000 	   41.0000 	   18.6571 
    2.0066 	   84.7470 	    4.0000 	   41.0000 	   18.6931 
    1.7624 	   84.7850 	    4.0000 	   41.0000 	   18.7311 
    1.9303 	   84.8240 	    4.0000 	   41.0000 	   18.7701 
    1.9760 	   84.8670 	    4.0000 	   41.0000 	   18.8131 
    1.9760 	   84.9070 	    4.0000 	   41.0000 	   18.8531 
    1.9455 	   84.9480 	    4.0000 	   41.0000 	   18.8941 
    1.9455 	   84.9870 	    4.0000 	   41.0000 	   18.9331 
    1.9303 	   85.0240 	    4.0000 	   41.0000 	   18.9701 
    1.8692 	   85.0660 	    4.0000 	   41.0000 	   19.0121 
    1.9760 	   85.1070 	    4.0000 	   41.0000 	   19.0531 
    1.7319 	   85.1480 	    4.0000 	   41.0000 	   19.0941 
    2.1592 	   85.1910 	    4.0000 	   41.0000 	   19.1371 
    1.8540 	   85.2330 	    4.0000 	   41.0000 	   19.1791 
    1.9150 	   85.2740 	    4.0000 	   41.0000 	   19.2201 
    1.8997 	   85.3120 	    4.0000 	   41.0000 	   19.2581 
    1.8997 	   85.3500 	    4.0000 	   41.0000 	   19.2961 
    1.7777 	   85.3870 	    4.0000 	   41.0000 	   19.3331 
    1.9303 	   85.4240 	    4.0000 	   41.0000 	   19.3701 
    1.8997 	   85.4620 	    4.0000 	   41.0000 	   19.4081 
    1.8387 	   85.4990 	    4.0000 	   41.0000 	   19.4452 
    1.9150 	   85.5360 	    4.0000 	   41.0000 	   19.4822 
    1.5335 	   85.5730 	    4.0000 	   41.0000 	   19.5192 
    1.8997 	   85.6130 	    4.0000 	   41.0000 	   19.5592 
    1.9913 	   85.6500 	    4.0000 	   41.0000 	   19.5962 
    1.9608 	   85.6880 	    4.0000 	   41.0000 	   19.6342 
    1.8997 	   85.7240 	    4.0000 	   41.0000 	   19.6702 
    1.9150 	   85.7600 	    4.0000 	   41.0000 	   19.7062 
    1.9303 	   85.7990 	    4.0000 	   41.0000 	   19.7452 
    1.9760 	   85.8400 	    4.0000 	   41.0000 	   19.7862 
    1.8845 	   85.8820 	    4.0000 	   41.0000 	   19.8282 
    1.8235 	   85.9210 	    4.0000 	   41.0000 	   19.8672 
    1.8692 	   85.9650 	    4.0000 	   41.0000 	   19.9112 
    1.7624 	   86.0060 	    4.0000 	   41.0000 	   19.9522 
    1.7929 	   86.0430 	    4.0000 	   41.0000 	   19.9892 
    1.8540 	   86.0840 	    4.0000 	   41.0000 	   20.0302 
    1.8540 	   86.1200 	    4.0000 	   41.0000 	   20.0662 
    1.9455 	   86.1560 	    4.0000 	   41.0000 	   20.1022 
    1.7472 	   86.1950 	    4.0000 	   41.0000 	   20.1412 
    1.8387 	   86.2350 	    4.0000 	   41.0000 	   20.1812 
    1.8997 	   86.2740 	    4.0000 	   41.0000 	   20.2202 
    1.8692 	   86.3160 	    4.0000 	   41.0000 	   20.2622 
    1.8082 	   86.3550 	    4.0000 	   41.0000 	   20.3012 
    1.7929 	   86.3920 	    4.0000 	   41.0000 	   20.3382 
    1.8235 	   86.4280 	    4.0000 	   41.0000 	   20.3742 
    1.7166 	   86.4680 	    4.0000 	   41.0000 	   20.4142 
    1.7319 	   86.5080 	    4.0000 	   41.0000 	   20.4542 
    1.7014 	   86.5460 	    4.0000 	   41.0000 	   20.4922 
    1.9608 	   86.5850 	    4.0000 	   41.0000 	   20.5312 
    1.8997 	   86.6250 	    4.0000 	   41.0000 	   20.5712 
    1.7929 	   86.6630 	    4.0000 	   41.0000 	   20.6092 
    1.7472 	   86.7020 	    4.0000 	   41.0000 	   20.6482 
    1.8082 	   86.7400 	    4.0000 	   41.0000 	   20.6862 
    1.6861 	   86.7750 	    4.0000 	   41.0000 	   20.7212 
    1.7472 	   86.8120 	    4.0000 	   41.0000 	   20.7582 
    1.7319 	   86.8490 	    4.0000 	   41.0000 	   20.7952 
    1.7166 	   86.8860 	    4.0000 	   41.0000 	   20.8322 
    1.6403 	   86.9230 	    4.0000 	   41.0000 	   20.8692 
    1.6556 	   86.9630 	    4.0000 	   41.0000 	   20.9092 
    1.7319 	   87.0000 	    4.0000 	   41.0000 	   20.9462 
    1.8692 	   87.0370 	    4.0000 	   41.0000 	   20.9832 
    1.5640 	   87.0780 	    4.0000 	   41.0000 	   21.0242 
    1.5335 	   87.1170 	    4.0000 	   41.0000 	   21.0632 
    1.7624 	   87.1580 	    4.0000 	   41.0000 	   21.1032 
    1.7166 	   87.2010 	    4.0000 	   41.0000 	   21.1472 
    1.8540 	   87.2420 	    4.0000 	   41.0000 	   21.1882 
    1.6861 	   87.2840 	    4.0000 	   41.0000 	   21.2303 
    1.6403 	   87.3260 	    4.0000 	   41.0000 	   21.2723 
    1.7319 	   87.3690 	    4.0000 	   41.0000 	   21.3153 
    1.6861 	   87.4090 	    4.0000 	   41.0000 	   21.3553 
    1.6403 	   87.4490 	    4.0000 	   41.0000 	   21.3953 
    1.7014 	   87.4900 	    4.0000 	   41.0000 	   21.4363 
    1.6861 	   87.5310 	    4.0000 	   41.0000 	   21.4773 
    1.3657 	   87.5700 	    4.0000 	   41.0000 	   21.5163 
    1.5946 	   87.6070 	    4.0000 	   41.0000 	   21.5533 
    1.5335 	   87.6470 	    4.0000 	   41.0000 	   21.5933 
    1.3657 	   87.6840 	    4.0000 	   41.0000 	   21.6303 
    1.6556 	   87.7220 	    4.0000 	   41.0000 	   21.6683 
    1.6556 	   87.7600 	    4.0000 	   41.0000 	   21.7063 
    1.6556 	   87.7970 	    4.0000 	   41.0000 	   21.7433 
    1.6251 	   87.8340 	    4.0000 	   41.0000 	   21.7803 
    1.6403 	   87.8710 	    4.0000 	   41.0000 	   21.8173 
    1.5488 	   87.9090 	    4.0000 	   41.0000 	   21.8553 
    1.6251 	   87.9500 	    4.0000 	   41.0000 	   21.8963 
    1.7929 	   87.9900 	    4.0000 	   41.0000 	   21.9363 
    1.6556 	   88.0310 	    4.0000 	   41.0000 	   21.9773 
    1.7472 	   88.0700 	    4.0000 	   41.0000 	   22.0163 
    1.7166 	   88.1140 	    4.0000 	   41.0000 	   22.0603 
    1.4420 	   88.1540 	    4.0000 	   41.0000 	   22.1003 
    1.5488 	   88.1940 	    4.0000 	   41.0000 	   22.1403 
    1.6861 	   88.2340 	    4.0000 	   41.0000 	   22.1803 
    1.6251 	   88.2750 	    4.0000 	   41.0000 	   22.2213 
    1.5640 	   88.3200 	    4.0000 	   41.0000 	   22.2663 
    1.5183 	   88.3600 	    4.0000 	   41.0000 	   22.3063 
    1.5793 	   88.4010 	    4.0000 	   41.0000 	   22.3473 
    1.5183 	   88.4410 	    4.0000 	   41.0000 	   22.3873 
    1.5488 	   88.4830 	    4.0000 	   41.0000 	   22.4293 
    1.4878 	   88.5240 	    4.0000 	   41.0000 	   22.4703 
    1.6556 	   88.5630 	    4.0000 	   41.0000 	   22.5093 
    1.6556 	   88.6020 	    4.0000 	   41.0000 	   22.5483 
    1.5640 	   88.6400 	    4.0000 	   41.0000 	   22.5863 
    1.5183 	   88.6790 	    4.0000 	   41.0000 	   22.6253 
    1.3962 	   88.7160 	    4.0000 	   41.0000 	   22.6623 
    1.3046 	   88.7530 	    4.0000 	   41.0000 	   22.6993 
    1.4878 	   88.7890 	    4.0000 	   41.0000 	   22.7353 
    1.4725 	   88.8260 	    4.0000 	   41.0000 	   22.7723 
    1.4878 	   88.8680 	    4.0000 	   41.0000 	   22.8143 
    1.5946 	   88.9080 	    4.0000 	   41.0000 	   22.8543 
    1.5793 	   88.9490 	    4.0000 	   41.0000 	   22.8953 
    1.6861 	   88.9880 	    4.0000 	   41.0000 	   22.9343 
    1.4878 	   89.0260 	    4.0000 	   41.0000 	   22.9724 
    1.4572 	   89.0630 	    4.0000 	   41.0000 	   23.0094 
    1.4420 	   89.1020 	    4.0000 	   41.0000 	   23.0484 
    1.5030 	   89.1390 	    4.0000 	   41.0000 	   23.0854 
    1.7319 	   89.1760 	    4.0000 	   41.0000 	   23.1224 
    1.4725 	   89.2130 	    4.0000 	   41.0000 	   23.1594 
    1.6709 	   89.2500 	    4.0000 	   41.0000 	   23.1964 
    1.6709 	   89.2870 	    4.0000 	   41.0000 	   23.2334 
    1.5946 	   89.3250 	    4.0000 	   41.0000 	   23.2714 
    1.6403 	   89.3660 	    4.0000 	   41.0000 	   23.3124 
    1.3809 	   89.4070 	    4.0000 	   41.0000 	   23.3534 
    1.6251 	   89.4470 	    4.0000 	   41.0000 	   23.3934 
    1.5640 	   89.4840 	    4.0000 	   41.0000 	   23.4304 
    1.4115 	   89.5210 	    4.0000 	   41.0000 	   23.4674 
    1.4420 	   89.5580 	    4.0000 	   41.0000 	   23.5044 
    1.3504 	   89.5960 	    4.0000 	   41.0000 	   23.5424 
    1.5335 	   89.6350 	    4.0000 	   41.0000 	   23.5814 
    1.4725 	   89.6720 	    4.0000 	   41.0000 	   23.6184 
    1.5335 	   89.7100 	    4.0000 	   41.0000 	   23.6564 
    1.3962 	   89.7480 	    4.0000 	   41.0000 	   23.6944 
    1.4725 	   89.7840 	    4.0000 	   41.0000 	   23.7304 
    1.5183 	   89.8190 	    4.0000 	   41.0000 	   23.7654 
    1.4420 	   89.8560 	    4.0000 	   41.0000 	   23.8024 
    1.5183 	   89.8960 	    4.0000 	   41.0000 	   23.8424 
    1.3809 	   89.9380 	    4.0000 	   41.0000 	   23.8844 
    1.4420 	   89.9760 	    4.0000 	   41.0000 	   23.9224 
    1.3657 	   90.0180 	    4.0000 	   41.0000 	   23.9644 
    1.3809 	   90.0590 	    4.0000 	   41.0000 	   24.0054 
    1.4420 	   90.1020 	    4.0000 	   41.0000 	   24.0484 
    1.4267 	   90.1430 	    4.0000 	   41.0000 	   24.0894 
    1.4725 	   90.1830 	    4.0000 	   41.0000 	   24.1294 
    1.6098 	   90.2250 	    4.0000 	   41.0000 	   24.1714 
    1.3962 	   90.2670 	    4.0000 	   41.0000 	   24.2134 
    1.4725 	   90.3060 	    4.0000 	   41.0000 	   24.2524 
    1.3657 	   90.3470 	    4.0000 	   41.0000 	   24.2934 
    1.3962 	   90.3890 	    4.0000 	   41.0000 	   24.3354 
    1.3046 	   90.4310 	    4.0000 	   41.0000 	   24.3774 
    1.3809 	   90.4720 	    4.0000 	   41.0000 	   24.4184 
    1.4725 	   90.5130 	    4.0000 	   41.0000 	   24.4594 
    1.2589 	   90.5540 	    4.0000 	   41.0000 	   24.5004 
    1.4267 	   90.5930 	    4.0000 	   41.0000 	   24.5394 
    1.3657 	   90.6320 	    4.0000 	   41.0000 	   24.5784 
    1.3504 	   90.6710 	    4.0000 	   41.0000 	   24.6174 
    1.3657 	   90.7090 	    4.0000 	   41.0000 	   24.6554 
    1.5488 	   90.7490 	    4.0000 	   41.0000 	   24.6954 
    1.3657 	   90.7850 	    4.0000 	   41.0000 	   24.7315 
    1.3809 	   90.8230 	    4.0000 	   41.0000 	   24.7695 
    1.3809 	   90.8660 	    4.0000 	   41.0000 	   24.8125 
    1.2741 	   90.9070 	    4.0000 	   41.0000 	   24.8535 
    1.3046 	   90.9490 	    4.0000 	   41.0000 	   24.8955 
    1.4115 	   90.9890 	    4.0000 	   41.0000 	   24.9355 
    1.4420 	   91.0280 	    4.0000 	   41.0000 	   24.9745 
    1.4267 	   91.0670 	    4.0000 	   41.0000 	   25.0135 
    1.3046 	   91.1040 	    4.0000 	   41.0000 	   25.0505 
    1.4420 	   91.1420 	    4.0000 	   41.0000 	   25.0885 
    1.4267 	   91.1800 	    4.0000 	   41.0000 	   25.1265 
    1.4267 	   91.2170 	    4.0000 	   41.0000 	   25.1635 
    1.1673 	   91.2540 	    4.0000 	   41.0000 	   25.2005 
    1.2131 	   91.2920 	    4.0000 	   41.0000 	   25.2385 
    1.4267 	   91.3290 	    4.0000 	   41.0000 	   25.2755 
    1.3657 	   91.3690 	    4.0000 	   41.0000 	   25.3155 
    1.2894 	   91.4080 	    4.0000 	   41.0000 	   25.3545 
    1.3657 	   91.4490 	    4.0000 	   41.0000 	   25.3955 
    1.3962 	   91.4900 	    4.0000 	   41.0000 	   25.4365 
    1.2741 	   91.5320 	    4.0000 	   41.0000 	   25.4785 
    1.4267 	   91.5700 	    4.0000 	   41.0000 	   25.5165 
    1.3809 	   91.6090 	    4.0000 	   41.0000 	   25.5555 
    1.1215 	   91.6470 	    4.0000 	   41.0000 	   25.5935 
    1.4115 	   91.6850 	    4.0000 	   41.0000 	   25.6315 
    1.3504 	   91.7220 	    4.0000 	   41.0000 	   25.6685 
    1.2284 	   91.7610 	    4.0000 	   41.0000 	   25.7075 
    1.2436 	   91.7980 	    4.0000 	   41.0000 	   25.7445 
    1.4115 	   91.8350 	    4.0000 	   41.0000 	   25.7815 
    1.3962 	   91.8750 	    4.0000 	   41.0000 	   25.8215 
    1.4115 	   91.9150 	    4.0000 	   41.0000 	   25.8615 
    1.4420 	   91.9570 	    4.0000 	   41.0000 	   25.9035 
    1.0147 	   91.9990 	    4.0000 	   41.0000 	   25.9455 
    1.4420 	   92.0390 	    4.0000 	   41.0000 	   25.9855 
    1.3199 	   92.0830 	    4.0000 	   41.0000 	   26.0295 
    1.3046 	   92.1280 	    4.0000 	   41.0000 	   26.0745 
    1.4267 	   92.1690 	    4.0000 	   41.0000 	   26.1155 
    1.1673 	   92.2110 	    4.0000 	   41.0000 	   26.1575 
    1.2436 	   92.2550 	    4.0000 	   41.0000 	   26.2015 
    1.2436 	   92.2960 	    4.0000 	   41.0000 	   26.2425 
    1.3352 	   92.3380 	    4.0000 	   41.0000 	   26.2845 
    1.1215 	   92.3780 	    4.0000 	   41.0000 	   26.3245 
    1.3962 	   92.4200 	    4.0000 	   41.0000 	   26.3665 
    1.1521 	   92.4610 	    4.0000 	   41.0000 	   26.4075 
    1.3962 	   92.5050 	    4.0000 	   41.0000 	   26.4516 
    1.2284 	   92.5460 	    4.0000 	   41.0000 	   26.4926 
    1.0452 	   92.5830 	    4.0000 	   41.0000 	   26.5296 
    1.3046 	   92.6220 	    4.0000 	   41.0000 	   26.5686 
    1.4572 	   92.6620 	    4.0000 	   41.0000 	   26.6086 
    1.3352 	   92.7000 	    4.0000 	   41.0000 	   26.6466 
    1.3809 	   92.7410 	    4.0000 	   41.0000 	   26.6876 
    1.1978 	   92.7780 	    4.0000 	   41.0000 	   26.7246 
    1.2436 	   92.8170 	    4.0000 	   41.0000 	   26.7636 
    1.2284 	   92.8540 	    4.0000 	   41.0000 	   26.8006 
    1.2589 	   92.8920 	    4.0000 	   41.0000 	   26.8386 
    0.9689 	   92.9320 	    4.0000 	   41.0000 	   26.8786 
    1.2741 	   92.9730 	    4.0000 	   41.0000 	   26.9196 
    1.1826 	   93.0120 	    4.0000 	   41.0000 	   26.9586 
    1.3199 	   93.0550 	    4.0000 	   41.0000 	   27.0016 
    1.1215 	   93.0950 	    4.0000 	   41.0000 	   27.0416 
    1.1215 	   93.1360 	    4.0000 	   41.0000 	   27.0826 
    1.3809 	   93.1740 	    4.0000 	   41.0000 	   27.1206 
    1.1368 	   93.2150 	    4.0000 	   41.0000 	   27.1616 
    1.2589 	   93.2550 	    4.0000 	   41.0000 	   27.2016 
    1.2741 	   93.2930 	    4.0000 	   41.0000 	   27.2396 
    1.2894 	   93.3320 	    4.0000 	   41.0000 	   27.2786 
    1.1978 	   93.3710 	    4.0000 	   41.0000 	   27.3176 
    1.1673 	   93.4090 	    4.0000 	   41.0000 	   27.3556 
    1.2284 	   93.4480 	    4.0000 	   41.0000 	   27.3946 
    1.2589 	   93.4850 	    4.0000 	   41.0000 	   27.4316 
    1.2589 	   93.5230 	    4.0000 	   41.0000 	   27.4696 
    1.1673 	   93.5610 	    4.0000 	   41.0000 	   27.5076 
    1.3199 	   93.6010 	    4.0000 	   41.0000 	   27.5476 
    1.1673 	   93.6410 	    4.0000 	   41.0000 	   27.5876 
    1.1368 	   93.6790 	    4.0000 	   41.0000 	   27.6256 
    1.1673 	   93.7200 	    4.0000 	   41.0000 	   27.6666 
    1.1215 	   93.7570 	    4.0000 	   41.0000 	   27.7036 
    1.2741 	   93.7950 	    4.0000 	   41.0000 	   27.7416 
    1.2894 	   93.8330 	    4.0000 	   41.0000 	   27.7796 
    1.2894 	   93.8710 	    4.0000 	   41.0000 	   27.8176 
    1.2436 	   93.9090 	    4.0000 	   41.0000 	   27.8556 
    1.2436 	   93.9460 	    4.0000 	   41.0000 	   27.8926 
    1.3046 	   93.9860 	    4.0000 	   41.0000 	   27.9326 
    0.9689 	   94.0230 	    4.0000 	   41.0000 	   27.9696 
    1.1368 	   94.0640 	    4.0000 	   41.0000 	   28.0106 
    1.1826 	   94.1070 	    4.0000 	   41.0000 	   28.0536 
    1.2284 	   94.1450 	    4.0000 	   41.0000 	   28.0916 
    1.2131 	   94.1830 	    4.0000 	   41.0000 	   28.1296 
    1.2436 	   94.2240 	    4.0000 	   41.0000 	   28.1706 
    1.2436 	   94.2610 	    4.0000 	   41.0000 	   28.2077 
    1.1673 	   94.3010 	    4.0000 	   41.0000 	   28.2477 
    0.8927 	   94.3410 	    4.0000 	   41.0000 	   28.2877 
    1.3352 	   94.3810 	    4.0000 	   41.0000 	   28.3277 
    1.1063 	   94.4220 	    4.0000 	   41.0000 	   28.3687 
    1.1673 	   94.4650 	    4.0000 	   41.0000 	   28.4117 
    0.8774 	   94.5070 	    4.0000 	   41.0000 	   28.4537 
    1.1368 	   94.5490 	    4.0000 	   41.0000 	   28.4957 
    0.9689 	   94.5920 	    4.0000 	   41.0000 	   28.5387 
    1.2284 	   94.6300 	    4.0000 	   41.0000 	   28.5767 
    1.0300 	   94.6690 	    4.0000 	   41.0000 	   28.6157 
    1.2436 	   94.7080 	    4.0000 	   41.0000 	   28.6547 
    1.2284 	   94.7460 	    4.0000 	   41.0000 	   28.6927 
    1.1063 	   94.7860 	    4.0000 	   41.0000 	   28.7327 
    1.0605 	   94.8230 	    4.0000 	   41.0000 	   28.7697 
    1.1368 	   94.8630 	    4.0000 	   41.0000 	   28.8097 
    1.1673 	   94.9070 	    4.0000 	   41.0000 	   28.8537 
    1.1673 	   94.9480 	    4.0000 	   41.0000 	   28.8947 
    0.8774 	   94.9900 	    4.0000 	   41.0000 	   28.9367 
    1.1063 	   95.0330 	    4.0000 	   41.0000 	   28.9797 
    1.1978 	   95.0780 	    4.0000 	   41.0000 	   29.0247 
    0.9995 	   95.1190 	    4.0000 	   41.0000 	   29.0657 
    1.1826 	   95.1590 	    4.0000 	   41.0000 	   29.1057 
    1.1673 	   95.1970 	    4.0000 	   41.0000 	   29.1437 
    1.0452 	   95.2340 	    4.0000 	   41.0000 	   29.1807 
    1.1673 	   95.2730 	    4.0000 	   41.0000 	   29.2197 
    1.2131 	   95.3110 	    4.0000 	   41.0000 	   29.2577 
    1.0300 	   95.3540 	    4.0000 	   41.0000 	   29.3007 
    1.2284 	   95.3920 	    4.0000 	   41.0000 	   29.3387 
    1.1063 	   95.4300 	    4.0000 	   41.0000 	   29.3767 
    1.0758 	   95.4680 	    4.0000 	   41.0000 	   29.4147 
    1.2436 	   95.5060 	    4.0000 	   41.0000 	   29.4527 
    1.2284 	   95.5450 	    4.0000 	   41.0000 	   29.4917 
    1.0300 	   95.5830 	    4.0000 	   41.0000 	   29.5297 
    1.0452 	   95.6230 	    4.0000 	   41.0000 	   29.5697 
    1.0910 	   95.6610 	    4.0000 	   41.0000 	   29.6077 
    0.9995 	   95.7010 	    4.0000 	   41.0000 	   29.6477 
    1.2589 	   95.7420 	    4.0000 	   41.0000 	   29.6887 
    1.1215 	   95.7820 	    4.0000 	   41.0000 	   29.7287 
    1.1063 	   95.8200 	    4.0000 	   41.0000 	   29.7667 
    1.0605 	   95.8560 	    4.0000 	   41.0000 	   29.8027 
    1.0452 	   95.8960 	    4.0000 	   41.0000 	   29.8427 
    1.0605 	   95.9400 	    4.0000 	   41.0000 	   29.8867 
    1.1215 	   95.9830 	    4.0000 	   41.0000 	   29.9298 
    1.1063 	   96.0250 	    4.0000 	   41.0000 	   29.9718 
    1.0300 	   96.0690 	    4.0000 	   41.0000 	   30.0158 
    1.1673 	   96.1150 	    4.0000 	   41.0000 	   30.0618 
    1.1368 	   96.1570 	    4.0000 	   41.0000 	   30.1038 
    1.1063 	   96.2000 	    4.0000 	   41.0000 	   30.1468 
    0.9995 	   96.2410 	    4.0000 	   41.0000 	   30.1878 
    0.9995 	   96.2820 	    4.0000 	   41.0000 	   30.2288 
    0.8774 	   96.3230 	    4.0000 	   41.0000 	   30.2698 
    1.0758 	   96.3650 	    4.0000 	   41.0000 	   30.3118 
    0.9232 	   96.4070 	    4.0000 	   41.0000 	   30.3538 
    1.2284 	   96.4460 	    4.0000 	   41.0000 	   30.3928 
    1.0758 	   96.4850 	    4.0000 	   41.0000 	   30.4318 
    1.1978 	   96.5270 	    4.0000 	   41.0000 	   30.4738 
    1.1673 	   96.5690 	    4.0000 	   41.0000 	   30.5158 
    1.0452 	   96.6090 	    4.0000 	   41.0000 	   30.5558 
    0.8316 	   96.6490 	    4.0000 	   41.0000 	   30.5958 
    1.0300 	   96.6900 	    4.0000 	   41.0000 	   30.6368 
    1.1978 	   96.7290 	    4.0000 	   41.0000 	   30.6758 
    1.0452 	   96.7700 	    4.0000 	   41.0000 	   30.7168 
    1.0452 	   96.8080 	    4.0000 	   41.0000 	   30.7548 
    1.1215 	   96.8440 	    4.0000 	   41.0000 	   30.7908 
    0.7706 	   96.8830 	    4.0000 	   41.0000 	   30.8298 
    1.1063 	   96.9240 	    4.0000 	   41.0000 	   30.8708 
    1.0452 	   96.9660 	    4.0000 	   41.0000 	   30.9128 
    1.1063 	   97.0070 	    4.0000 	   41.0000 	   30.9538 
    1.0910 	   97.0510 	    4.0000 	   41.0000 	   30.9978 
    1.1826 	   97.0900 	    4.0000 	   41.0000 	   31.0368 
    1.1215 	   97.1280 	    4.0000 	   41.0000 	   31.0748 
    1.1673 	   97.1670 	    4.0000 	   41.0000 	   31.1138 
    0.9384 	   97.2060 	    4.0000 	   41.0000 	   31.1528 
    1.0300 	   97.2470 	    4.0000 	   41.0000 	   31.1938 
    1.1978 	   97.2900 	    4.0000 	   41.0000 	   31.2368 
    0.8927 	   97.3320 	    4.0000 	   41.0000 	   31.2788 
    1.0910 	   97.3760 	    4.0000 	   41.0000 	   31.3228 
    1.1063 	   97.4190 	    4.0000 	   41.0000 	   31.3658 
    1.1368 	   97.4590 	    4.0000 	   41.0000 	   31.4058 
    1.2284 	   97.5010 	    4.0000 	   41.0000 	   31.4478 
    1.2284 	   97.5420 	    4.0000 	   41.0000 	   31.4888 
    0.9384 	   97.5840 	    4.0000 	   41.0000 	   31.5308 
    0.9079 	   97.6230 	    4.0000 	   41.0000 	   31.5698 
    0.9384 	   97.6650 	    4.0000 	   41.0000 	   31.6118 
    0.9384 	   97.7070 	    4.0000 	   41.0000 	   31.6538 
    0.9842 	   97.7450 	    4.0000 	   41.0000 	   31.6919 
    0.6638 	   97.7850 	    4.0000 	   41.0000 	   31.7319 
    1.1521 	   97.8220 	    4.0000 	   41.0000 	   31.7689 
    0.8316 	   97.8590 	    4.0000 	   41.0000 	   31.8059 
    0.9689 	   97.8970 	    4.0000 	   41.0000 	   31.8439 
    1.0147 	   97.9340 	    4.0000 	   41.0000 	   31.8809 
    0.9384 	   97.9730 	    4.0000 	   41.0000 	   31.9199 
    1.0300 	   98.0120 	    4.0000 	   41.0000 	   31.9589 
    0.9079 	   98.0510 	    4.0000 	   41.0000 	   31.9979 
    0.6485 	   98.0930 	    4.0000 	   41.0000 	   32.0399 
    0.9995 	   98.1310 	    4.0000 	   41.0000 	   32.0779 
    0.9842 	   98.1700 	    4.0000 	   41.0000 	   32.1169 
    1.0758 	   98.2080 	    4.0000 	   41.0000 	   32.1549 
    1.0147 	   98.2490 	    4.0000 	   41.0000 	   32.1959 
    0.9537 	   98.2900 	    4.0000 	   41.0000 	   32.2369 
    1.1063 	   98.3320 	    4.0000 	   41.0000 	   32.2789 
    0.9842 	   98.3760 	    4.0000 	   41.0000 	   32.3229 
    0.9689 	   98.4160 	    4.0000 	   41.0000 	   32.3629 
    1.0910 	   98.4590 	    4.0000 	   41.0000 	   32.4059 
    0.9537 	   98.5010 	    4.0000 	   41.0000 	   32.4479 
    0.9995 	   98.5430 	    4.0000 	   41.0000 	   32.4899 
    1.2284 	   98.5830 	    4.0000 	   41.0000 	   32.5299 
    0.7858 	   98.6210 	    4.0000 	   41.0000 	   32.5679 
    0.8927 	   98.6600 	    4.0000 	   41.0000 	   32.6069 
    0.9995 	   98.7010 	    4.0000 	   41.0000 	   32.6479 
    0.9384 	   98.7390 	    4.0000 	   41.0000 	   32.6859 
    0.8774 	   98.7780 	    4.0000 	   41.0000 	   32.7249 
    0.9537 	   98.8160 	    4.0000 	   41.0000 	   32.7629 
    0.9537 	   98.8550 	    4.0000 	   41.0000 	   32.8019 
    1.0300 	   98.8920 	    4.0000 	   41.0000 	   32.8389 
    1.0147 	   98.9330 	    4.0000 	   41.0000 	   32.8799 
    1.0300 	   98.9730 	    4.0000 	   41.0000 	   32.9199 
    0.9232 	   99.0170 	    4.0000 	   41.0000 	   32.9639 
    0.8316 	   99.0580 	    4.0000 	   41.0000 	   33.0049 
    0.9842 	   99.0970 	    4.0000 	   41.0000 	   33.0439 
    1.0758 	   99.1370 	    4.0000 	   41.0000 	   33.0839 
    1.1063 	   99.1750 	    4.0000 	   41.0000 	   33.1219 
    1.0605 	   99.2130 	    4.0000 	   41.0000 	   33.1599 
    1.0910 	   99.2510 	    4.0000 	   41.0000 	   33.1979 
    0.9079 	   99.2900 	    4.0000 	   41.0000 	   33.2369 
    1.0605 	   99.3280 	    4.0000 	   41.0000 	   33.2749 
    0.8927 	   99.3660 	    4.0000 	   41.0000 	   33.3129 
    0.8774 	   99.4070 	    4.0000 	   41.0000 	   33.3539 
    1.0300 	   99.4500 	    4.0000 	   41.0000 	   33.3969 
    0.9537 	   99.4930 	    4.0000 	   41.0000 	   33.4399 
    1.0147 	   99.5340 	    4.0000 	   41.0000 	   33.4810 
    1.0147 	   99.5760 	    4.0000 	   41.0000 	   33.5230 
    0.9995 	   99.6160 	    4.0000 	   41.0000 	   33.5630 
    1.0605 	   99.6560 	    4.0000 	   41.0000 	   33.6030 
    1.0300 	   99.6960 	    4.0000 	   41.0000 	   33.6430 
    0.8774 	   99.7350 	    4.0000 	   41.0000 	   33.6820 
    0.9384 	   99.7760 	    4.0000 	   41.0000 	   33.7230 
    0.9537 	   99.8140 	    4.0000 	   41.0000 	   33.7610 
    0.9995 	   99.8510 	    4.0000 	   41.0000 	   33.7980 
    0.9232 	   99.8910 	    4.0000 	   41.0000 	   33.8380 
    0.9079 	   99.9330 	    4.0000 	   41.0000 	   33.8800 
    0.8927 	   99.9740 	    4.0000 	   41.0000 	   33.9210 
    0.8927 	  100.0160 	    4.0000 	   41.0000 	   33.9630 
    0.8927 	  100.0550 	    4.0000 	   41.0000 	   34.0020 
    0.6790 	  100.0970 	    4.0000 	   41.0000 	   34.0440 
    0.9384 	  100.1380 	    4.0000 	   41.0000 	   34.0850 
    0.8164 	  100.1760 	    4.0000 	   41.0000 	   34.1230 
    0.9842 	  100.2150 	    4.0000 	   41.0000 	   34.1620 
    0.8469 	  100.2540 	    4.0000 	   41.0000 	   34.2010 
    0.9537 	  100.2940 	    4.0000 	   41.0000 	   34.2410 
    0.9079 	  100.3360 	    4.0000 	   41.0000 	   34.2830 
    0.5722 	  100.3800 	    4.0000 	   41.0000 	   34.3270 
    0.9384 	  100.4220 	    4.0000 	   41.0000 	   34.3690 
    0.8774 	  100.4640 	    4.0000 	   41.0000 	   34.4110 
    0.8164 	  100.5040 	    4.0000 	   41.0000 	   34.4510 
    0.9384 	  100.5470 	    4.0000 	   41.0000 	   34.4940 
    0.6790 	  100.5900 	    4.0000 	   41.0000 	   34.5370 
    0.8927 	  100.6310 	    4.0000 	   41.0000 	   34.5780 
    0.9384 	  100.6720 	    4.0000 	   41.0000 	   34.6190 
    0.8927 	  100.7130 	    4.0000 	   41.0000 	   34.6600 
    0.8011 	  100.7530 	    4.0000 	   41.0000 	   34.7000 
    0.8774 	  100.7930 	    4.0000 	   41.0000 	   34.7400 
    0.8164 	  100.8300 	    4.0000 	   41.0000 	   34.7770 
    0.8621 	  100.8680 	    4.0000 	   41.0000 	   34.8140 
    0.9232 	  100.9090 	    4.0000 	   41.0000 	   34.8550 
    0.9384 	  100.9500 	    4.0000 	   41.0000 	   34.8960 
    0.8927 	  100.9920 	    4.0000 	   41.0000 	   34.9380 
    0.8011 	  101.0310 	    4.0000 	   41.0000 	   34.9770 
    0.9079 	  101.0680 	    4.0000 	   41.0000 	   35.0140 
    0.8774 	  101.1070 	    4.0000 	   41.0000 	   35.0530 
    0.8927 	  101.1480 	    4.0000 	   41.0000 	   35.0940 
    0.8469 	  101.1870 	    4.0000 	   41.0000 	   35.1330 
    0.9079 	  101.2250 	    4.0000 	   41.0000 	   35.1711 
    0.9537 	  101.2630 	    4.0000 	   41.0000 	   35.2091 
    0.9079 	  101.3020 	    4.0000 	   41.0000 	   35.2481 
    0.9537 	  101.3410 	    4.0000 	   41.0000 	   35.2871 
    0.8927 	  101.3800 	    4.0000 	   41.0000 	   35.3261 
    0.8316 	  101.4180 	    4.0000 	   41.0000 	   35.3641 
    0.7706 	  101.4570 	    4.0000 	   41.0000 	   35.4031 
    0.9537 	  101.4950 	    4.0000 	   41.0000 	   35.4411 
    0.8316 	  101.5340 	    4.0000 	   41.0000 	   35.4801 
    0.8316 	  101.5730 	    4.0000 	   41.0000 	   35.5191 
    0.9232 	  101.6120 	    4.0000 	   41.0000 	   35.5581 
    0.9384 	  101.6510 	    4.0000 	   41.0000 	   35.5971 
    0.8316 	  101.6910 	    4.0000 	   41.0000 	   35.6371 
    0.7553 	  101.7320 	    4.0000 	   41.0000 	   35.6781 
    0.8774 	  101.7700 	    4.0000 	   41.0000 	   35.7161 
    0.8774 	  101.8090 	    4.0000 	   41.0000 	   35.7551 
    0.8011 	  101.8460 	    4.0000 	   41.0000 	   35.7921 
    0.6027 	  101.8840 	    4.0000 	   41.0000 	   35.8301 
    0.8316 	  101.9260 	    4.0000 	   41.0000 	   35.8721 
    0.9232 	  101.9720 	    4.0000 	   41.0000 	   35.9181 
    1.0147 	  102.0110 	    4.0000 	   41.0000 	   35.9571 
    0.9537 	  102.0570 	    4.0000 	   41.0000 	   36.0031 
    0.9842 	  102.1000 	    4.0000 	   41.0000 	   36.0461 
    0.8164 	  102.1400 	    4.0000 	   41.0000 	   36.0861 
    0.8316 	  102.1840 	    4.0000 	   41.0000 	   36.1301 
    0.9537 	  102.2250 	    4.0000 	   41.0000 	   36.1711 
    0.8164 	  102.2670 	    4.0000 	   41.0000 	   36.2131 
    0.8621 	  102.3080 	    4.0000 	   41.0000 	   36.2541 
    0.8164 	  102.3480 	    4.0000 	   41.0000 	   36.2941 
    0.8774 	  102.3860 	    4.0000 	   41.0000 	   36.3321 
    0.8927 	  102.4250 	    4.0000 	   41.0000 	   36.3711 
    0.7858 	  102.4640 	    4.0000 	   41.0000 	   36.4101 
    0.9384 	  102.5020 	    4.0000 	   41.0000 	   36.4481 
    1.0300 	  102.5410 	    4.0000 	   41.0000 	   36.4871 
    0.8011 	  102.5830 	    4.0000 	   41.0000 	   36.5291 
    0.7248 	  102.6210 	    4.0000 	   41.0000 	   36.5671 
    0.7401 	  102.6610 	    4.0000 	   41.0000 	   36.6071 
    0.8316 	  102.7010 	    4.0000 	   41.0000 	   36.6471 
    0.8316 	  102.7390 	    4.0000 	   41.0000 	   36.6851 
    0.7553 	  102.7790 	    4.0000 	   41.0000 	   36.7251 
    0.8164 	  102.8190 	    4.0000 	   41.0000 	   36.7651 
    0.7858 	  102.8610 	    4.0000 	   41.0000 	   36.8071 
    0.8621 	  102.9050 	    4.0000 	   41.0000 	   36.8511 
    0.8469 	  102.9500 	    4.0000 	   41.0000 	   36.8961 
    0.5875 	  102.9930 	    4.0000 	   41.0000 	   36.9381 
    0.6180 	  103.0350 	    4.0000 	   41.0000 	   36.9812 
    0.9995 	  103.0800 	    4.0000 	   41.0000 	   37.0262 
    0.8469 	  103.1240 	    4.0000 	   41.0000 	   37.0702 
    0.8774 	  103.1670 	    4.0000 	   41.0000 	   37.1132 
    0.8164 	  103.2080 	    4.0000 	   41.0000 	   37.1542 
    0.8011 	  103.2520 	    4.0000 	   41.0000 	   37.1982 
    0.7706 	  103.2960 	    4.0000 	   41.0000 	   37.2422 
    0.8316 	  103.3410 	    4.0000 	   41.0000 	   37.2872 
    0.7095 	  103.3840 	    4.0000 	   41.0000 	   37.3302 
    0.7858 	  103.4260 	    4.0000 	   41.0000 	   37.3722 
    0.8164 	  103.4710 	    4.0000 	   41.0000 	   37.4172 
    0.8927 	  103.5150 	    4.0000 	   41.0000 	   37.4612 
    1.0300 	  103.5560 	    4.0000 	   41.0000 	   37.5022 
    0.9384 	  103.5950 	    4.0000 	   41.0000 	   37.5412 
    0.6790 	  103.6370 	    4.0000 	   41.0000 	   37.5832 
    0.7553 	  103.6810 	    4.0000 	   41.0000 	   37.6272 
    1.0147 	  103.7220 	    4.0000 	   41.0000 	   37.6682 
    0.5417 	  103.7600 	    4.0000 	   41.0000 	   37.7062 
    0.9995 	  103.7990 	    4.0000 	   41.0000 	   37.7452 
    0.8927 	  103.8380 	    4.0000 	   41.0000 	   37.7842 
    0.7706 	  103.8760 	    4.0000 	   41.0000 	   37.8222 
    0.7858 	  103.9130 	    4.0000 	   41.0000 	   37.8592 
    0.7401 	  103.9520 	    4.0000 	   41.0000 	   37.8982 
    0.8164 	  103.9910 	    4.0000 	   41.0000 	   37.9372 
    0.8316 	  104.0340 	    4.0000 	   41.0000 	   37.9802 
    0.8774 	  104.0750 	    4.0000 	   41.0000 	   38.0212 
    0.8469 	  104.1140 	    4.0000 	   41.0000 	   38.0602 
    0.8316 	  104.1520 	    4.0000 	   41.0000 	   38.0982 
    0.8316 	  104.1920 	    4.0000 	   41.0000 	   38.1382 
    0.8164 	  104.2300 	    4.0000 	   41.0000 	   38.1762 
    0.9537 	  104.2710 	    4.0000 	   41.0000 	   38.2172 
    0.7553 	  104.3120 	    4.0000 	   41.0000 	   38.2582 
    0.7095 	  104.3560 	    4.0000 	   41.0000 	   38.3022 
    0.8164 	  104.4000 	    4.0000 	   41.0000 	   38.3462 
    0.8316 	  104.4420 	    4.0000 	   41.0000 	   38.3882 
