Thayer School of Engineering        Instron 4442 Mechanical Testing System
7/9/2018 12:43:22 AM

  Force (N)	Extension (mm)	Not Used	Not Used	Not Used	     Hour	    Minute	    Second
    0.4349 	    0.5070 	    0.0000 	   44.0000 	    3.5099 
    0.4349 	    0.5250 	    0.0000 	   44.0000 	    3.5459 
    0.3891 	    0.5570 	    0.0000 	   44.0000 	    3.6099 
    0.5112 	    0.5730 	    0.0000 	   44.0000 	    3.6419 
    0.3281 	    0.5900 	    0.0000 	   44.0000 	    3.6759 
    0.5417 	    0.6190 	    0.0000 	   44.0000 	    3.7339 
    0.4807 	    0.6450 	    0.0000 	   44.0000 	    3.7859 
    0.3738 	    0.6715 	    0.0000 	   44.0000 	    3.8389 
    0.4044 	    0.6880 	    0.0000 	   44.0000 	    3.8719 
    0.3738 	    0.7165 	    0.0000 	   44.0000 	    3.9289 
    0.3738 	    0.7335 	    0.0000 	   44.0000 	    3.9629 
    0.1450 	    0.7500 	    0.0000 	   44.0000 	    3.9959 
    0.4349 	    0.7660 	    0.0000 	   44.0000 	    4.0279 
    0.4501 	    0.7940 	    0.0000 	   44.0000 	    4.0839 
    0.1755 	    0.8230 	    0.0000 	   44.0000 	    4.1419 
    0.4501 	    0.8490 	    0.0000 	   44.0000 	    4.1939 
    0.4349 	    0.8765 	    0.0000 	   44.0000 	    4.2489 
    0.5112 	    0.9020 	    0.0000 	   44.0000 	    4.2999 
    0.4501 	    0.9260 	    0.0000 	   44.0000 	    4.3479 
    0.3281 	    0.9510 	    0.0000 	   44.0000 	    4.3979 
    0.3738 	    0.9765 	    0.0000 	   44.0000 	    4.4489 
    0.4654 	    1.0055 	    0.0000 	   44.0000 	    4.5069 
    0.4807 	    1.0335 	    0.0000 	   44.0000 	    4.5629 
    0.3738 	    1.0585 	    0.0000 	   44.0000 	    4.6129 
    0.3738 	    1.0735 	    0.0000 	   44.0000 	    4.6429 
    0.3738 	    1.1010 	    0.0000 	   44.0000 	    4.6979 
    0.5722 	    1.1155 	    0.0000 	   44.0000 	    4.7270 
    0.1907 	    1.1295 	    0.0000 	   44.0000 	    4.7550 
    0.4044 	    1.1580 	    0.0000 	   44.0000 	    4.8120 
    0.4196 	    1.1835 	    0.0000 	   44.0000 	    4.8630 
    0.4044 	    1.2090 	    0.0000 	   44.0000 	    4.9140 
    0.4654 	    1.2240 	    0.0000 	   44.0000 	    4.9440 
    0.1907 	    1.2375 	    0.0000 	   44.0000 	    4.9710 
    0.4196 	    1.2655 	    0.0000 	   44.0000 	    5.0270 
    0.6332 	    1.2925 	    0.0000 	   44.0000 	    5.0810 
    0.5722 	    1.3185 	    0.0000 	   44.0000 	    5.1330 
    0.1907 	    1.3450 	    0.0000 	   44.0000 	    5.1860 
    0.5112 	    1.3610 	    0.0000 	   44.0000 	    5.2180 
    0.5112 	    1.3900 	    0.0000 	   44.0000 	    5.2760 
    0.4044 	    1.4165 	    0.0000 	   44.0000 	    5.3290 
    0.5112 	    1.4335 	    0.0000 	   44.0000 	    5.3630 
    0.2060 	    1.4625 	    0.0000 	   44.0000 	    5.4210 
    0.5264 	    1.4885 	    0.0000 	   44.0000 	    5.4730 
    0.3738 	    1.5145 	    0.0000 	   44.0000 	    5.5250 
    0.3891 	    1.5410 	    0.0000 	   44.0000 	    5.5780 
    0.6027 	    1.5695 	    0.0000 	   44.0000 	    5.6350 
    0.4044 	    1.5865 	    0.0000 	   44.0000 	    5.6690 
    0.4349 	    1.6165 	    0.0000 	   44.0000 	    5.7290 
    0.5417 	    1.6330 	    0.0000 	   44.0000 	    5.7610 
    0.5112 	    1.6485 	    0.0000 	   44.0000 	    5.7920 
    0.4044 	    1.6645 	    0.0000 	   44.0000 	    5.8240 
    0.4349 	    1.6800 	    0.0000 	   44.0000 	    5.8550 
    0.0992 	    1.6960 	    0.0000 	   44.0000 	    5.8870 
    0.4196 	    1.7140 	    0.0000 	   44.0000 	    5.9230 
    0.4501 	    1.7435 	    0.0000 	   44.0000 	    5.9820 
    0.4501 	    1.7620 	    0.0000 	   44.0000 	    6.0190 
    0.4807 	    1.7770 	    0.0000 	   44.0000 	    6.0490 
    0.5570 	    1.7925 	    0.0000 	   44.0000 	    6.0800 
    0.4349 	    1.8085 	    0.0000 	   44.0000 	    6.1120 
    0.4959 	    1.8245 	    0.0000 	   44.0000 	    6.1440 
    0.4501 	    1.8395 	    0.0000 	   44.0000 	    6.1740 
    0.1297 	    1.8570 	    0.0000 	   44.0000 	    6.2090 
    0.5417 	    1.8735 	    0.0000 	   44.0000 	    6.2420 
    0.4501 	    1.8900 	    0.0000 	   44.0000 	    6.2750 
    0.4807 	    1.9070 	    0.0000 	   44.0000 	    6.3090 
    0.4959 	    1.9240 	    0.0000 	   44.0000 	    6.3430 
    0.4959 	    1.9405 	    0.0000 	   44.0000 	    6.3760 
    0.1755 	    1.9575 	    0.0000 	   44.0000 	    6.4100 
    0.4349 	    1.9735 	    0.0000 	   44.0000 	    6.4420 
    0.4349 	    1.9895 	    0.0000 	   44.0000 	    6.4741 
    0.3128 	    2.0050 	    0.0000 	   44.0000 	    6.5051 
    0.4044 	    2.0210 	    0.0000 	   44.0000 	    6.5371 
    0.4959 	    2.0365 	    0.0000 	   44.0000 	    6.5681 
    0.2976 	    2.0535 	    0.0000 	   44.0000 	    6.6021 
    0.5417 	    2.0675 	    0.0000 	   44.0000 	    6.6301 
    0.4196 	    2.0855 	    0.0000 	   44.0000 	    6.6661 
    0.3891 	    2.1020 	    0.0000 	   44.0000 	    6.6991 
    0.4501 	    2.1175 	    0.0000 	   44.0000 	    6.7301 
    0.3281 	    2.1340 	    0.0000 	   44.0000 	    6.7631 
    0.4196 	    2.1495 	    0.0000 	   44.0000 	    6.7941 
    0.4349 	    2.1665 	    0.0000 	   44.0000 	    6.8281 
    0.3281 	    2.1830 	    0.0000 	   44.0000 	    6.8611 
    0.6638 	    2.1995 	    0.0000 	   44.0000 	    6.8941 
    0.3738 	    2.2160 	    0.0000 	   44.0000 	    6.9271 
    0.5722 	    2.2310 	    0.0000 	   44.0000 	    6.9571 
    0.5264 	    2.2475 	    0.0000 	   44.0000 	    6.9901 
    0.5112 	    2.2645 	    0.0000 	   44.0000 	    7.0241 
    0.6485 	    2.2805 	    0.0000 	   44.0000 	    7.0561 
    0.5417 	    2.2970 	    0.0000 	   44.0000 	    7.0891 
    0.6180 	    2.3140 	    0.0000 	   44.0000 	    7.1231 
    0.3128 	    2.3280 	    0.0000 	   44.0000 	    7.1511 
    0.5112 	    2.3455 	    0.0000 	   44.0000 	    7.1861 
    0.4501 	    2.3620 	    0.0000 	   44.0000 	    7.2191 
    0.3891 	    2.3785 	    0.0000 	   44.0000 	    7.2521 
    0.4654 	    2.3950 	    0.0000 	   44.0000 	    7.2851 
    0.6180 	    2.4100 	    0.0000 	   44.0000 	    7.3151 
    0.4044 	    2.4275 	    0.0000 	   44.0000 	    7.3501 
    0.4807 	    2.4440 	    0.0000 	   44.0000 	    7.3831 
    0.4349 	    2.4605 	    0.0000 	   44.0000 	    7.4161 
    0.4349 	    2.4755 	    0.0000 	   44.0000 	    7.4461 
    0.4654 	    2.4915 	    0.0000 	   44.0000 	    7.4781 
    0.4807 	    2.5080 	    0.0000 	   44.0000 	    7.5111 
    0.3433 	    2.5235 	    0.0000 	   44.0000 	    7.5421 
    0.5264 	    2.5400 	    0.0000 	   44.0000 	    7.5751 
    0.4807 	    2.5550 	    0.0000 	   44.0000 	    7.6051 
    0.4807 	    2.5710 	    0.0000 	   44.0000 	    7.6371 
    0.3433 	    2.5880 	    0.0000 	   44.0000 	    7.6711 
    0.4349 	    2.6030 	    0.0000 	   44.0000 	    7.7011 
    0.4807 	    2.6200 	    0.0000 	   44.0000 	    7.7351 
    0.4044 	    2.6365 	    0.0000 	   44.0000 	    7.7681 
    0.4501 	    2.6520 	    0.0000 	   44.0000 	    7.7991 
    0.3891 	    2.6695 	    0.0000 	   44.0000 	    7.8341 
    0.5570 	    2.6845 	    0.0000 	   44.0000 	    7.8641 
    0.5417 	    2.6995 	    0.0000 	   44.0000 	    7.8941 
    0.5417 	    2.7145 	    0.0000 	   44.0000 	    7.9241 
    0.3738 	    2.7290 	    0.0000 	   44.0000 	    7.9531 
    0.5112 	    2.7460 	    0.0000 	   44.0000 	    7.9871 
    0.5570 	    2.7610 	    0.0000 	   44.0000 	    8.0171 
    0.5112 	    2.7770 	    0.0000 	   44.0000 	    8.0491 
    0.5264 	    2.7930 	    0.0000 	   44.0000 	    8.0811 
    0.4196 	    2.8085 	    0.0000 	   44.0000 	    8.1121 
    0.3128 	    2.8245 	    0.0000 	   44.0000 	    8.1441 
    0.5570 	    2.8410 	    0.0000 	   44.0000 	    8.1771 
    0.4501 	    2.8565 	    0.0000 	   44.0000 	    8.2081 
    0.5264 	    2.8715 	    0.0000 	   44.0000 	    8.2382 
    0.4959 	    2.8875 	    0.0000 	   44.0000 	    8.2702 
    0.4196 	    2.9020 	    0.0000 	   44.0000 	    8.2992 
    0.5417 	    2.9180 	    0.0000 	   44.0000 	    8.3312 
    0.4959 	    2.9350 	    0.0000 	   44.0000 	    8.3652 
    0.5112 	    2.9495 	    0.0000 	   44.0000 	    8.3942 
    0.5570 	    2.9645 	    0.0000 	   44.0000 	    8.4242 
    0.5570 	    2.9790 	    0.0000 	   44.0000 	    8.4532 
    0.3128 	    2.9955 	    0.0000 	   44.0000 	    8.4862 
    0.5722 	    3.0100 	    0.0000 	   44.0000 	    8.5152 
    0.5570 	    3.0250 	    0.0000 	   44.0000 	    8.5452 
    0.4501 	    3.0420 	    0.0000 	   44.0000 	    8.5792 
    0.4044 	    3.0575 	    0.0000 	   44.0000 	    8.6102 
    0.4196 	    3.0725 	    0.0000 	   44.0000 	    8.6402 
    0.6638 	    3.0900 	    0.0000 	   44.0000 	    8.6752 
    0.4654 	    3.1050 	    0.0000 	   44.0000 	    8.7052 
    0.5417 	    3.1195 	    0.0000 	   44.0000 	    8.7342 
    0.4044 	    3.1365 	    0.0000 	   44.0000 	    8.7682 
    0.4807 	    3.1525 	    0.0000 	   44.0000 	    8.8002 
    0.5264 	    3.1675 	    0.0000 	   44.0000 	    8.8302 
    0.6180 	    3.1845 	    0.0000 	   44.0000 	    8.8642 
    0.1755 	    3.2005 	    0.0000 	   44.0000 	    8.8962 
    0.4196 	    3.2160 	    0.0000 	   44.0000 	    8.9272 
    0.6027 	    3.2340 	    0.0000 	   44.0000 	    8.9632 
    0.4349 	    3.2495 	    0.0000 	   44.0000 	    8.9942 
    0.5875 	    3.2635 	    0.0000 	   44.0000 	    9.0222 
    0.4044 	    3.2790 	    0.0000 	   44.0000 	    9.0532 
    0.2823 	    3.2955 	    0.0000 	   44.0000 	    9.0862 
    0.4654 	    3.3105 	    0.0000 	   44.0000 	    9.1162 
    0.4501 	    3.3255 	    0.0000 	   44.0000 	    9.1462 
    0.5417 	    3.3425 	    0.0000 	   44.0000 	    9.1802 
    0.1450 	    3.3575 	    0.0000 	   44.0000 	    9.2102 
    0.4959 	    3.3725 	    0.0000 	   44.0000 	    9.2402 
    0.6180 	    3.3890 	    0.0000 	   44.0000 	    9.2732 
    0.5570 	    3.4040 	    0.0000 	   44.0000 	    9.3032 
    0.4044 	    3.4190 	    0.0000 	   44.0000 	    9.3332 
    0.5875 	    3.4365 	    0.0000 	   44.0000 	    9.3682 
    0.5112 	    3.4520 	    0.0000 	   44.0000 	    9.3992 
    0.4654 	    3.4675 	    0.0000 	   44.0000 	    9.4302 
    0.4959 	    3.4840 	    0.0000 	   44.0000 	    9.4632 
    0.4501 	    3.4995 	    0.0000 	   44.0000 	    9.4942 
    0.4196 	    3.5140 	    0.0000 	   44.0000 	    9.5232 
    0.4959 	    3.5285 	    0.0000 	   44.0000 	    9.5522 
    0.6027 	    3.5460 	    0.0000 	   44.0000 	    9.5872 
    0.5112 	    3.5615 	    0.0000 	   44.0000 	    9.6182 
    0.5264 	    3.5780 	    0.0000 	   44.0000 	    9.6512 
    0.5722 	    3.5940 	    0.0000 	   44.0000 	    9.6832 
    0.4959 	    3.6110 	    0.0000 	   44.0000 	    9.7172 
    0.5722 	    3.6265 	    0.0000 	   44.0000 	    9.7482 
    0.3891 	    3.6445 	    0.0000 	   44.0000 	    9.7842 
    0.4807 	    3.6615 	    0.0000 	   44.0000 	    9.8182 
    0.4044 	    3.6775 	    0.0000 	   44.0000 	    9.8502 
    0.6180 	    3.6945 	    0.0000 	   44.0000 	    9.8842 
    0.4196 	    3.7105 	    0.0000 	   44.0000 	    9.9162 
    0.4807 	    3.7265 	    0.0000 	   44.0000 	    9.9482 
    0.6180 	    3.7435 	    0.0000 	   44.0000 	    9.9823 
    0.4807 	    3.7590 	    0.0000 	   44.0000 	   10.0133 
    0.4959 	    3.7735 	    0.0000 	   44.0000 	   10.0423 
    0.5722 	    3.7920 	    0.0000 	   44.0000 	   10.0793 
    0.4044 	    3.8075 	    0.0000 	   44.0000 	   10.1103 
    0.2518 	    3.8230 	    0.0000 	   44.0000 	   10.1413 
    0.5570 	    3.8395 	    0.0000 	   44.0000 	   10.1743 
    0.4501 	    3.8550 	    0.0000 	   44.0000 	   10.2053 
    0.5417 	    3.8700 	    0.0000 	   44.0000 	   10.2353 
    0.1602 	    3.8865 	    0.0000 	   44.0000 	   10.2683 
    0.4044 	    3.9020 	    0.0000 	   44.0000 	   10.2993 
    0.5112 	    3.9180 	    0.0000 	   44.0000 	   10.3313 
    0.4959 	    3.9355 	    0.0000 	   44.0000 	   10.3663 
    0.3891 	    3.9515 	    0.0000 	   44.0000 	   10.3983 
    0.5875 	    3.9670 	    0.0000 	   44.0000 	   10.4293 
    0.4349 	    3.9830 	    0.0000 	   44.0000 	   10.4613 
    0.4807 	    3.9975 	    0.0000 	   44.0000 	   10.4903 
    0.4349 	    4.0120 	    0.0000 	   44.0000 	   10.5193 
    0.4349 	    4.0270 	    0.0000 	   44.0000 	   10.5493 
    0.4501 	    4.0440 	    0.0000 	   44.0000 	   10.5833 
    0.6180 	    4.0600 	    0.0000 	   44.0000 	   10.6153 
    0.6332 	    4.0760 	    0.0000 	   44.0000 	   10.6473 
    0.4349 	    4.0905 	    0.0000 	   44.0000 	   10.6763 
    0.1144 	    4.1055 	    0.0000 	   44.0000 	   10.7063 
    0.4959 	    4.1210 	    0.0000 	   44.0000 	   10.7373 
    0.4349 	    4.1375 	    0.0000 	   44.0000 	   10.7703 
    0.4959 	    4.1525 	    0.0000 	   44.0000 	   10.8003 
    0.6027 	    4.1690 	    0.0000 	   44.0000 	   10.8333 
    0.5417 	    4.1840 	    0.0000 	   44.0000 	   10.8633 
    0.4807 	    4.1985 	    0.0000 	   44.0000 	   10.8923 
    0.4501 	    4.2140 	    0.0000 	   44.0000 	   10.9233 
    0.4807 	    4.2290 	    0.0000 	   44.0000 	   10.9533 
    0.4807 	    4.2455 	    0.0000 	   44.0000 	   10.9863 
    0.4654 	    4.2615 	    0.0000 	   44.0000 	   11.0183 
    0.4807 	    4.2785 	    0.0000 	   44.0000 	   11.0523 
    0.4349 	    4.2945 	    0.0000 	   44.0000 	   11.0843 
    0.4044 	    4.3095 	    0.0000 	   44.0000 	   11.1143 
    0.4196 	    4.3250 	    0.0000 	   44.0000 	   11.1453 
    0.3891 	    4.3420 	    0.0000 	   44.0000 	   11.1793 
    0.5264 	    4.3570 	    0.0000 	   44.0000 	   11.2093 
    0.5875 	    4.3720 	    0.0000 	   44.0000 	   11.2393 
    0.4501 	    4.3880 	    0.0000 	   44.0000 	   11.2713 
    0.4654 	    4.4035 	    0.0000 	   44.0000 	   11.3023 
    0.5417 	    4.4195 	    0.0000 	   44.0000 	   11.3343 
    0.6027 	    4.4365 	    0.0000 	   44.0000 	   11.3683 
    0.6332 	    4.4535 	    0.0000 	   44.0000 	   11.4023 
    0.4654 	    4.4705 	    0.0000 	   44.0000 	   11.4363 
    0.4349 	    4.4865 	    0.0000 	   44.0000 	   11.4683 
    0.4807 	    4.5025 	    0.0000 	   44.0000 	   11.5003 
    0.5570 	    4.5175 	    0.0000 	   44.0000 	   11.5303 
    0.3586 	    4.5345 	    0.0000 	   44.0000 	   11.5643 
    0.5417 	    4.5500 	    0.0000 	   44.0000 	   11.5953 
    0.4959 	    4.5660 	    0.0000 	   44.0000 	   11.6273 
    0.3738 	    4.5815 	    0.0000 	   44.0000 	   11.6583 
    0.5112 	    4.5970 	    0.0000 	   44.0000 	   11.6893 
    0.4959 	    4.6130 	    0.0000 	   44.0000 	   11.7214 
    0.5112 	    4.6285 	    0.0000 	   44.0000 	   11.7524 
    0.6027 	    4.6465 	    0.0000 	   44.0000 	   11.7884 
    0.4501 	    4.6625 	    0.0000 	   44.0000 	   11.8204 
    0.4044 	    4.6785 	    0.0000 	   44.0000 	   11.8524 
    0.6027 	    4.6945 	    0.0000 	   44.0000 	   11.8844 
    0.4654 	    4.7105 	    0.0000 	   44.0000 	   11.9164 
    0.6027 	    4.7260 	    0.0000 	   44.0000 	   11.9474 
    0.4501 	    4.7430 	    0.0000 	   44.0000 	   11.9814 
    0.5417 	    4.7585 	    0.0000 	   44.0000 	   12.0124 
    0.5875 	    4.7750 	    0.0000 	   44.0000 	   12.0454 
    0.4959 	    4.7900 	    0.0000 	   44.0000 	   12.0754 
    0.4959 	    4.8055 	    0.0000 	   44.0000 	   12.1064 
    0.5875 	    4.8210 	    0.0000 	   44.0000 	   12.1374 
    0.5570 	    4.8380 	    0.0000 	   44.0000 	   12.1714 
    0.5570 	    4.8535 	    0.0000 	   44.0000 	   12.2024 
    0.4654 	    4.8700 	    0.0000 	   44.0000 	   12.2354 
    0.6180 	    4.8855 	    0.0000 	   44.0000 	   12.2664 
    0.5570 	    4.9010 	    0.0000 	   44.0000 	   12.2974 
    0.4959 	    4.9175 	    0.0000 	   44.0000 	   12.3304 
    0.4959 	    4.9350 	    0.0000 	   44.0000 	   12.3654 
    0.4501 	    4.9510 	    0.0000 	   44.0000 	   12.3974 
    0.4196 	    4.9675 	    0.0000 	   44.0000 	   12.4304 
    0.4196 	    4.9835 	    0.0000 	   44.0000 	   12.4624 
    0.2518 	    5.0000 	    0.0000 	   44.0000 	   12.4954 
    0.4196 	    5.0155 	    0.0000 	   44.0000 	   12.5264 
    0.4501 	    5.0305 	    0.0000 	   44.0000 	   12.5564 
    0.4959 	    5.0490 	    0.0000 	   44.0000 	   12.5934 
    0.3128 	    5.0640 	    0.0000 	   44.0000 	   12.6234 
    0.5112 	    5.0795 	    0.0000 	   44.0000 	   12.6544 
    0.5875 	    5.0945 	    0.0000 	   44.0000 	   12.6844 
    0.5264 	    5.1110 	    0.0000 	   44.0000 	   12.7174 
    0.5570 	    5.1265 	    0.0000 	   44.0000 	   12.7484 
    0.4501 	    5.1435 	    0.0000 	   44.0000 	   12.7824 
    0.5875 	    5.1595 	    0.0000 	   44.0000 	   12.8144 
    0.4501 	    5.1745 	    0.0000 	   44.0000 	   12.8444 
    0.4501 	    5.1905 	    0.0000 	   44.0000 	   12.8764 
    0.3433 	    5.2060 	    0.0000 	   44.0000 	   12.9074 
    0.3738 	    5.2210 	    0.0000 	   44.0000 	   12.9374 
    0.3433 	    5.2385 	    0.0000 	   44.0000 	   12.9724 
    0.5264 	    5.2540 	    0.0000 	   44.0000 	   13.0034 
    0.5112 	    5.2710 	    0.0000 	   44.0000 	   13.0374 
    0.6027 	    5.2860 	    0.0000 	   44.0000 	   13.0674 
    0.5417 	    5.3010 	    0.0000 	   44.0000 	   13.0974 
    0.5264 	    5.3165 	    0.0000 	   44.0000 	   13.1284 
    0.4807 	    5.3335 	    0.0000 	   44.0000 	   13.1624 
    0.4654 	    5.3505 	    0.0000 	   44.0000 	   13.1964 
    0.4044 	    5.3660 	    0.0000 	   44.0000 	   13.2274 
    0.4807 	    5.3820 	    0.0000 	   44.0000 	   13.2594 
    0.3738 	    5.3985 	    0.0000 	   44.0000 	   13.2924 
    0.4807 	    5.4140 	    0.0000 	   44.0000 	   13.3234 
    0.6790 	    5.4290 	    0.0000 	   44.0000 	   13.3534 
    0.3891 	    5.4465 	    0.0000 	   44.0000 	   13.3884 
    0.5875 	    5.4630 	    0.0000 	   44.0000 	   13.4214 
    0.3738 	    5.4780 	    0.0000 	   44.0000 	   13.4515 
    0.6027 	    5.4935 	    0.0000 	   44.0000 	   13.4825 
    0.3738 	    5.5095 	    0.0000 	   44.0000 	   13.5145 
    0.5264 	    5.5250 	    0.0000 	   44.0000 	   13.5455 
    0.3433 	    5.5435 	    0.0000 	   44.0000 	   13.5825 
    0.5112 	    5.5595 	    0.0000 	   44.0000 	   13.6145 
    0.6180 	    5.5760 	    0.0000 	   44.0000 	   13.6475 
    0.4501 	    5.5920 	    0.0000 	   44.0000 	   13.6795 
    0.5264 	    5.6085 	    0.0000 	   44.0000 	   13.7125 
    0.4044 	    5.6245 	    0.0000 	   44.0000 	   13.7445 
    0.3891 	    5.6415 	    0.0000 	   44.0000 	   13.7785 
    0.5264 	    5.6580 	    0.0000 	   44.0000 	   13.8115 
    0.5570 	    5.6745 	    0.0000 	   44.0000 	   13.8445 
    0.5264 	    5.6900 	    0.0000 	   44.0000 	   13.8755 
    0.5875 	    5.7065 	    0.0000 	   44.0000 	   13.9085 
    0.5875 	    5.7235 	    0.0000 	   44.0000 	   13.9425 
    0.4959 	    5.7415 	    0.0000 	   44.0000 	   13.9785 
    0.4959 	    5.7570 	    0.0000 	   44.0000 	   14.0085 
    0.3738 	    5.7730 	    0.0000 	   44.0000 	   14.0415 
    0.5417 	    5.7895 	    0.0000 	   44.0000 	   14.0745 
    0.4349 	    5.8050 	    0.0000 	   44.0000 	   14.1055 
    0.5264 	    5.8210 	    0.0000 	   44.0000 	   14.1375 
    0.6180 	    5.8385 	    0.0000 	   44.0000 	   14.1725 
    0.5264 	    5.8540 	    0.0000 	   44.0000 	   14.2035 
    0.4654 	    5.8705 	    0.0000 	   44.0000 	   14.2365 
    0.3738 	    5.8860 	    0.0000 	   44.0000 	   14.2675 
    0.4501 	    5.9010 	    0.0000 	   44.0000 	   14.2975 
    0.5112 	    5.9170 	    0.0000 	   44.0000 	   14.3295 
    0.5264 	    5.9350 	    0.0000 	   44.0000 	   14.3655 
    0.5570 	    5.9515 	    0.0000 	   44.0000 	   14.3985 
    0.6790 	    5.9665 	    0.0000 	   44.0000 	   14.4285 
    0.4654 	    5.9830 	    0.0000 	   44.0000 	   14.4615 
    0.5264 	    5.9990 	    0.0000 	   44.0000 	   14.4935 
    0.5417 	    6.0145 	    0.0000 	   44.0000 	   14.5245 
    0.5264 	    6.0295 	    0.0000 	   44.0000 	   14.5545 
    0.5112 	    6.0480 	    0.0000 	   44.0000 	   14.5915 
    0.5875 	    6.0635 	    0.0000 	   44.0000 	   14.6225 
    0.5264 	    6.0795 	    0.0000 	   44.0000 	   14.6545 
    0.5264 	    6.0965 	    0.0000 	   44.0000 	   14.6885 
    0.4501 	    6.1115 	    0.0000 	   44.0000 	   14.7185 
    0.5112 	    6.1275 	    0.0000 	   44.0000 	   14.7505 
    0.4349 	    6.1455 	    0.0000 	   44.0000 	   14.7865 
    0.4349 	    6.1610 	    0.0000 	   44.0000 	   14.8175 
    0.5112 	    6.1770 	    0.0000 	   44.0000 	   14.8495 
    0.5112 	    6.1925 	    0.0000 	   44.0000 	   14.8805 
    0.6027 	    6.2085 	    0.0000 	   44.0000 	   14.9125 
    0.4349 	    6.2245 	    0.0000 	   44.0000 	   14.9445 
    0.6790 	    6.2410 	    0.0000 	   44.0000 	   14.9775 
    0.4959 	    6.2570 	    0.0000 	   44.0000 	   15.0095 
    0.4501 	    6.2725 	    0.0000 	   44.0000 	   15.0405 
    0.5112 	    6.2880 	    0.0000 	   44.0000 	   15.0715 
    0.7248 	    6.3040 	    0.0000 	   44.0000 	   15.1035 
    0.4807 	    6.3200 	    0.0000 	   44.0000 	   15.1355 
    0.5417 	    6.3365 	    0.0000 	   44.0000 	   15.1685 
    0.4959 	    6.3525 	    0.0000 	   44.0000 	   15.2006 
    0.4807 	    6.3685 	    0.0000 	   44.0000 	   15.2326 
    0.5264 	    6.3845 	    0.0000 	   44.0000 	   15.2646 
    0.5570 	    6.4005 	    0.0000 	   44.0000 	   15.2966 
    0.6943 	    6.4165 	    0.0000 	   44.0000 	   15.3286 
    0.4807 	    6.4330 	    0.0000 	   44.0000 	   15.3616 
    0.4959 	    6.4495 	    0.0000 	   44.0000 	   15.3946 
    0.7095 	    6.4660 	    0.0000 	   44.0000 	   15.4276 
    0.6790 	    6.4815 	    0.0000 	   44.0000 	   15.4586 
    0.4959 	    6.4975 	    0.0000 	   44.0000 	   15.4906 
    0.6638 	    6.5130 	    0.0000 	   44.0000 	   15.5216 
    0.4807 	    6.5285 	    0.0000 	   44.0000 	   15.5526 
    0.6485 	    6.5445 	    0.0000 	   44.0000 	   15.5846 
    0.5264 	    6.5605 	    0.0000 	   44.0000 	   15.6166 
    0.4959 	    6.5815 	    0.0000 	   44.0000 	   15.6586 
    0.4807 	    6.5985 	    0.0000 	   44.0000 	   15.6926 
    0.5417 	    6.6150 	    0.0000 	   44.0000 	   15.7256 
    0.5417 	    6.6305 	    0.0000 	   44.0000 	   15.7566 
    0.4959 	    6.6470 	    0.0000 	   44.0000 	   15.7896 
    0.5570 	    6.6630 	    0.0000 	   44.0000 	   15.8216 
    0.5570 	    6.6785 	    0.0000 	   44.0000 	   15.8526 
    0.4654 	    6.6945 	    0.0000 	   44.0000 	   15.8846 
    0.5112 	    6.7110 	    0.0000 	   44.0000 	   15.9176 
    0.5875 	    6.7270 	    0.0000 	   44.0000 	   15.9496 
    0.5417 	    6.7435 	    0.0000 	   44.0000 	   15.9826 
    0.4654 	    6.7590 	    0.0000 	   44.0000 	   16.0136 
    0.5570 	    6.7760 	    0.0000 	   44.0000 	   16.0476 
    0.3128 	    6.7920 	    0.0000 	   44.0000 	   16.0796 
    0.6027 	    6.8075 	    0.0000 	   44.0000 	   16.1106 
    0.4959 	    6.8240 	    0.0000 	   44.0000 	   16.1436 
    0.5570 	    6.8410 	    0.0000 	   44.0000 	   16.1776 
    0.2213 	    6.8565 	    0.0000 	   44.0000 	   16.2086 
    0.6027 	    6.8725 	    0.0000 	   44.0000 	   16.2406 
    0.5264 	    6.8880 	    0.0000 	   44.0000 	   16.2716 
    0.6180 	    6.9045 	    0.0000 	   44.0000 	   16.3046 
    0.4501 	    6.9200 	    0.0000 	   44.0000 	   16.3356 
    0.6485 	    6.9355 	    0.0000 	   44.0000 	   16.3666 
    0.5570 	    6.9520 	    0.0000 	   44.0000 	   16.3996 
    0.6332 	    6.9680 	    0.0000 	   44.0000 	   16.4316 
    0.5722 	    6.9845 	    0.0000 	   44.0000 	   16.4646 
    0.5417 	    7.0015 	    0.0000 	   44.0000 	   16.4986 
    0.6790 	    7.0175 	    0.0000 	   44.0000 	   16.5306 
    0.4807 	    7.0355 	    0.0000 	   44.0000 	   16.5666 
    0.5875 	    7.0510 	    0.0000 	   44.0000 	   16.5976 
    0.6638 	    7.0665 	    0.0000 	   44.0000 	   16.6286 
    0.5570 	    7.0835 	    0.0000 	   44.0000 	   16.6626 
    0.5875 	    7.0995 	    0.0000 	   44.0000 	   16.6946 
    0.5570 	    7.1165 	    0.0000 	   44.0000 	   16.7286 
    0.5722 	    7.1325 	    0.0000 	   44.0000 	   16.7606 
    0.4807 	    7.1485 	    0.0000 	   44.0000 	   16.7926 
    0.4654 	    7.1645 	    0.0000 	   44.0000 	   16.8246 
    0.3128 	    7.1810 	    0.0000 	   44.0000 	   16.8576 
    0.5264 	    7.1975 	    0.0000 	   44.0000 	   16.8906 
    0.5570 	    7.2125 	    0.0000 	   44.0000 	   16.9206 
    0.6180 	    7.2290 	    0.0000 	   44.0000 	   16.9536 
    0.5417 	    7.2465 	    0.0000 	   44.0000 	   16.9887 
    0.5722 	    7.2630 	    0.0000 	   44.0000 	   17.0217 
    0.5417 	    7.2800 	    0.0000 	   44.0000 	   17.0557 
    0.1907 	    7.2960 	    0.0000 	   44.0000 	   17.0877 
    0.5264 	    7.3125 	    0.0000 	   44.0000 	   17.1207 
    0.4501 	    7.3280 	    0.0000 	   44.0000 	   17.1517 
    0.6332 	    7.3440 	    0.0000 	   44.0000 	   17.1837 
    0.4349 	    7.3605 	    0.0000 	   44.0000 	   17.2167 
    0.5417 	    7.3765 	    0.0000 	   44.0000 	   17.2477 
    0.4959 	    7.3915 	    0.0000 	   44.0000 	   17.2787 
    0.6180 	    7.4075 	    0.0000 	   44.0000 	   17.3107 
    0.7858 	    7.4230 	    0.0000 	   44.0000 	   17.3417 
    0.5417 	    7.4395 	    0.0000 	   44.0000 	   17.3747 
    0.6485 	    7.4555 	    0.0000 	   44.0000 	   17.4067 
    0.4501 	    7.4710 	    0.0000 	   44.0000 	   17.4377 
    0.3128 	    7.4880 	    0.0000 	   44.0000 	   17.4707 
    0.5570 	    7.5035 	    0.0000 	   44.0000 	   17.5027 
    0.6180 	    7.5190 	    0.0000 	   44.0000 	   17.5337 
    0.5112 	    7.5360 	    0.0000 	   44.0000 	   17.5677 
    0.3433 	    7.5535 	    0.0000 	   44.0000 	   17.6027 
    0.5264 	    7.5685 	    0.0000 	   44.0000 	   17.6327 
    0.5417 	    7.5850 	    0.0000 	   44.0000 	   17.6657 
    0.5875 	    7.6015 	    0.0000 	   44.0000 	   17.6987 
    0.3891 	    7.6190 	    0.0000 	   44.0000 	   17.7337 
    0.2518 	    7.6365 	    0.0000 	   44.0000 	   17.7687 
    0.4807 	    7.6525 	    0.0000 	   44.0000 	   17.8007 
    0.6790 	    7.6690 	    0.0000 	   44.0000 	   17.8337 
    0.4654 	    7.6850 	    0.0000 	   44.0000 	   17.8657 
    0.6638 	    7.7005 	    0.0000 	   44.0000 	   17.8967 
    0.5417 	    7.7150 	    0.0000 	   44.0000 	   17.9257 
    0.6180 	    7.7305 	    0.0000 	   44.0000 	   17.9567 
    0.4654 	    7.7470 	    0.0000 	   44.0000 	   17.9897 
    0.6332 	    7.7635 	    0.0000 	   44.0000 	   18.0227 
    0.5875 	    7.7800 	    0.0000 	   44.0000 	   18.0557 
    0.6790 	    7.7960 	    0.0000 	   44.0000 	   18.0877 
    0.5722 	    7.8120 	    0.0000 	   44.0000 	   18.1197 
    0.6332 	    7.8275 	    0.0000 	   44.0000 	   18.1507 
    0.5875 	    7.8435 	    0.0000 	   44.0000 	   18.1827 
    0.6180 	    7.8570 	    0.0000 	   44.0000 	   18.2097 
    0.7706 	    7.8715 	    0.0000 	   44.0000 	   18.2387 
    0.6027 	    7.8860 	    0.0000 	   44.0000 	   18.2677 
    0.7095 	    7.9000 	    0.0000 	   44.0000 	   18.2957 
    0.5570 	    7.9150 	    0.0000 	   44.0000 	   18.3257 
    0.5417 	    7.9315 	    0.0000 	   44.0000 	   18.3587 
    0.4807 	    7.9475 	    0.0000 	   44.0000 	   18.3907 
    0.3738 	    7.9640 	    0.0000 	   44.0000 	   18.4237 
    0.5264 	    7.9800 	    0.0000 	   44.0000 	   18.4557 
    0.5570 	    7.9970 	    0.0000 	   44.0000 	   18.4897 
    0.6027 	    8.0130 	    0.0000 	   44.0000 	   18.5217 
    0.5570 	    8.0280 	    0.0000 	   44.0000 	   18.5517 
    0.5417 	    8.0455 	    0.0000 	   44.0000 	   18.5867 
    0.6332 	    8.0615 	    0.0000 	   44.0000 	   18.6187 
    0.5722 	    8.0780 	    0.0000 	   44.0000 	   18.6517 
    0.4349 	    8.0940 	    0.0000 	   44.0000 	   18.6838 
    0.6180 	    8.1120 	    0.0000 	   44.0000 	   18.7198 
    0.4959 	    8.1280 	    0.0000 	   44.0000 	   18.7518 
    0.7706 	    8.1450 	    0.0000 	   44.0000 	   18.7858 
    0.5417 	    8.1615 	    0.0000 	   44.0000 	   18.8188 
    0.6943 	    8.1785 	    0.0000 	   44.0000 	   18.8528 
    0.1450 	    8.1955 	    0.0000 	   44.0000 	   18.8868 
    0.6485 	    8.2120 	    0.0000 	   44.0000 	   18.9198 
    0.6027 	    8.2285 	    0.0000 	   44.0000 	   18.9528 
    0.4654 	    8.2470 	    0.0000 	   44.0000 	   18.9898 
    0.4349 	    8.2635 	    0.0000 	   44.0000 	   19.0228 
    0.5417 	    8.2800 	    0.0000 	   44.0000 	   19.0558 
    0.2213 	    8.2980 	    0.0000 	   44.0000 	   19.0918 
    0.6638 	    8.3150 	    0.0000 	   44.0000 	   19.1258 
    0.5875 	    8.3315 	    0.0000 	   44.0000 	   19.1588 
    0.7095 	    8.3485 	    0.0000 	   44.0000 	   19.1928 
    0.6943 	    8.3650 	    0.0000 	   44.0000 	   19.2258 
    0.4959 	    8.3820 	    0.0000 	   44.0000 	   19.2598 
    0.6180 	    8.3980 	    0.0000 	   44.0000 	   19.2918 
    0.6943 	    8.4150 	    0.0000 	   44.0000 	   19.3258 
    0.6332 	    8.4320 	    0.0000 	   44.0000 	   19.3598 
    0.6180 	    8.4495 	    0.0000 	   44.0000 	   19.3948 
    0.6027 	    8.4665 	    0.0000 	   44.0000 	   19.4288 
    0.4654 	    8.4830 	    0.0000 	   44.0000 	   19.4618 
    0.6027 	    8.4995 	    0.0000 	   44.0000 	   19.4948 
    0.5570 	    8.5160 	    0.0000 	   44.0000 	   19.5278 
    0.5417 	    8.5320 	    0.0000 	   44.0000 	   19.5598 
    0.6485 	    8.5485 	    0.0000 	   44.0000 	   19.5928 
    0.4807 	    8.5655 	    0.0000 	   44.0000 	   19.6268 
    0.5570 	    8.5830 	    0.0000 	   44.0000 	   19.6618 
    0.7553 	    8.5990 	    0.0000 	   44.0000 	   19.6938 
    0.4959 	    8.6160 	    0.0000 	   44.0000 	   19.7278 
    0.5264 	    8.6320 	    0.0000 	   44.0000 	   19.7598 
    0.6485 	    8.6500 	    0.0000 	   44.0000 	   19.7958 
    0.6485 	    8.6665 	    0.0000 	   44.0000 	   19.8288 
    0.4959 	    8.6835 	    0.0000 	   44.0000 	   19.8628 
    0.4196 	    8.7000 	    0.0000 	   44.0000 	   19.8958 
    0.4807 	    8.7170 	    0.0000 	   44.0000 	   19.9298 
    0.5112 	    8.7330 	    0.0000 	   44.0000 	   19.9618 
    0.2365 	    8.7500 	    0.0000 	   44.0000 	   19.9958 
    0.4349 	    8.7665 	    0.0000 	   44.0000 	   20.0288 
    0.6332 	    8.7825 	    0.0000 	   44.0000 	   20.0608 
    0.5112 	    8.8000 	    0.0000 	   44.0000 	   20.0958 
    0.5875 	    8.8175 	    0.0000 	   44.0000 	   20.1308 
    0.5722 	    8.8355 	    0.0000 	   44.0000 	   20.1668 
    0.6638 	    8.8530 	    0.0000 	   44.0000 	   20.2018 
    0.5417 	    8.8710 	    0.0000 	   44.0000 	   20.2378 
    0.5264 	    8.8880 	    0.0000 	   44.0000 	   20.2718 
    0.5570 	    8.9050 	    0.0000 	   44.0000 	   20.3058 
    0.5570 	    8.9220 	    0.0000 	   44.0000 	   20.3398 
    0.6180 	    8.9385 	    0.0000 	   44.0000 	   20.3728 
    0.6180 	    8.9555 	    0.0000 	   44.0000 	   20.4068 
    0.4959 	    8.9730 	    0.0000 	   44.0000 	   20.4418 
    0.4501 	    8.9895 	    0.0000 	   44.0000 	   20.4749 
    0.5570 	    9.0070 	    0.0000 	   44.0000 	   20.5099 
    0.5722 	    9.0235 	    0.0000 	   44.0000 	   20.5429 
    0.6485 	    9.0420 	    0.0000 	   44.0000 	   20.5799 
    0.4959 	    9.0590 	    0.0000 	   44.0000 	   20.6139 
    0.6485 	    9.0760 	    0.0000 	   44.0000 	   20.6479 
    0.4501 	    9.0930 	    0.0000 	   44.0000 	   20.6819 
    0.2670 	    9.1095 	    0.0000 	   44.0000 	   20.7149 
    0.4959 	    9.1255 	    0.0000 	   44.0000 	   20.7469 
    0.6180 	    9.1420 	    0.0000 	   44.0000 	   20.7799 
    0.6027 	    9.1585 	    0.0000 	   44.0000 	   20.8129 
    0.6485 	    9.1745 	    0.0000 	   44.0000 	   20.8449 
    0.5112 	    9.1915 	    0.0000 	   44.0000 	   20.8789 
    0.7553 	    9.2085 	    0.0000 	   44.0000 	   20.9129 
    0.5264 	    9.2250 	    0.0000 	   44.0000 	   20.9459 
    0.5417 	    9.2425 	    0.0000 	   44.0000 	   20.9809 
    0.6638 	    9.2600 	    0.0000 	   44.0000 	   21.0159 
    0.5417 	    9.2765 	    0.0000 	   44.0000 	   21.0489 
    0.6790 	    9.2925 	    0.0000 	   44.0000 	   21.0809 
    0.5417 	    9.3095 	    0.0000 	   44.0000 	   21.1149 
    0.3281 	    9.3260 	    0.0000 	   44.0000 	   21.1479 
    0.4959 	    9.3435 	    0.0000 	   44.0000 	   21.1829 
    0.7248 	    9.3605 	    0.0000 	   44.0000 	   21.2169 
    0.6180 	    9.3765 	    0.0000 	   44.0000 	   21.2489 
    0.6485 	    9.3925 	    0.0000 	   44.0000 	   21.2809 
    0.6943 	    9.4095 	    0.0000 	   44.0000 	   21.3149 
    0.6180 	    9.4255 	    0.0000 	   44.0000 	   21.3469 
    0.6027 	    9.4440 	    0.0000 	   44.0000 	   21.3839 
    0.4807 	    9.4615 	    0.0000 	   44.0000 	   21.4189 
    0.6180 	    9.4795 	    0.0000 	   44.0000 	   21.4549 
    0.6790 	    9.4960 	    0.0000 	   44.0000 	   21.4879 
    0.4959 	    9.5125 	    0.0000 	   44.0000 	   21.5209 
    0.4501 	    9.5290 	    0.0000 	   44.0000 	   21.5539 
    0.2213 	    9.5460 	    0.0000 	   44.0000 	   21.5879 
    0.5570 	    9.5630 	    0.0000 	   44.0000 	   21.6219 
    0.5112 	    9.5815 	    0.0000 	   44.0000 	   21.6589 
    0.7706 	    9.6005 	    0.0000 	   44.0000 	   21.6969 
    0.6638 	    9.6175 	    0.0000 	   44.0000 	   21.7309 
    0.6638 	    9.6345 	    0.0000 	   44.0000 	   21.7649 
    0.7706 	    9.6515 	    0.0000 	   44.0000 	   21.7989 
    0.5722 	    9.6685 	    0.0000 	   44.0000 	   21.8329 
    0.5112 	    9.6840 	    0.0000 	   44.0000 	   21.8639 
    0.5570 	    9.7010 	    0.0000 	   44.0000 	   21.8979 
    0.4349 	    9.7185 	    0.0000 	   44.0000 	   21.9329 
    0.7095 	    9.7345 	    0.0000 	   44.0000 	   21.9649 
    0.5722 	    9.7520 	    0.0000 	   44.0000 	   21.9999 
    0.5570 	    9.7690 	    0.0000 	   44.0000 	   22.0339 
    0.2518 	    9.7865 	    0.0000 	   44.0000 	   22.0689 
    0.5570 	    9.8045 	    0.0000 	   44.0000 	   22.1049 
    0.6332 	    9.8220 	    0.0000 	   44.0000 	   22.1399 
    0.5264 	    9.8405 	    0.0000 	   44.0000 	   22.1769 
    0.7095 	    9.8580 	    0.0000 	   44.0000 	   22.2120 
    0.6027 	    9.8755 	    0.0000 	   44.0000 	   22.2470 
    0.5112 	    9.8935 	    0.0000 	   44.0000 	   22.2830 
    0.7095 	    9.9090 	    0.0000 	   44.0000 	   22.3140 
    0.5875 	    9.9260 	    0.0000 	   44.0000 	   22.3480 
    0.6180 	    9.9430 	    0.0000 	   44.0000 	   22.3820 
    0.4807 	    9.9610 	    0.0000 	   44.0000 	   22.4180 
    0.5264 	    9.9770 	    0.0000 	   44.0000 	   22.4500 
    0.4349 	    9.9935 	    0.0000 	   44.0000 	   22.4830 
    0.5875 	   10.0105 	    0.0000 	   44.0000 	   22.5170 
    0.5570 	   10.0275 	    0.0000 	   44.0000 	   22.5510 
    0.2823 	   10.0460 	    0.0000 	   44.0000 	   22.5880 
    0.5570 	   10.0630 	    0.0000 	   44.0000 	   22.6220 
    0.6485 	   10.0775 	    0.0000 	   44.0000 	   22.6510 
    0.5875 	   10.0945 	    0.0000 	   44.0000 	   22.6850 
    0.5264 	   10.1125 	    0.0000 	   44.0000 	   22.7210 
    0.6790 	   10.1285 	    0.0000 	   44.0000 	   22.7530 
    0.5112 	   10.1455 	    0.0000 	   44.0000 	   22.7870 
    0.6027 	   10.1620 	    0.0000 	   44.0000 	   22.8200 
    0.5570 	   10.1790 	    0.0000 	   44.0000 	   22.8540 
    0.6638 	   10.1950 	    0.0000 	   44.0000 	   22.8860 
    0.5112 	   10.2125 	    0.0000 	   44.0000 	   22.9210 
    0.6027 	   10.2300 	    0.0000 	   44.0000 	   22.9560 
    0.6180 	   10.2470 	    0.0000 	   44.0000 	   22.9900 
    0.5264 	   10.2635 	    0.0000 	   44.0000 	   23.0230 
    0.6332 	   10.2815 	    0.0000 	   44.0000 	   23.0590 
    0.5570 	   10.3010 	    0.0000 	   44.0000 	   23.0980 
    0.5112 	   10.3185 	    0.0000 	   44.0000 	   23.1330 
    0.6790 	   10.3355 	    0.0000 	   44.0000 	   23.1670 
    0.6638 	   10.3525 	    0.0000 	   44.0000 	   23.2010 
    0.5875 	   10.3710 	    0.0000 	   44.0000 	   23.2370 
    0.6943 	   10.3890 	    0.0000 	   44.0000 	   23.2730 
    0.4654 	   10.4060 	    0.0000 	   44.0000 	   23.3070 
    0.6027 	   10.4235 	    0.0000 	   44.0000 	   23.3420 
    0.5264 	   10.4410 	    0.0000 	   44.0000 	   23.3770 
    0.5875 	   10.4585 	    0.0000 	   44.0000 	   23.4120 
    0.4807 	   10.4755 	    0.0000 	   44.0000 	   23.4460 
    0.7553 	   10.4925 	    0.0000 	   44.0000 	   23.4800 
    0.6332 	   10.5090 	    0.0000 	   44.0000 	   23.5130 
    0.5417 	   10.5265 	    0.0000 	   44.0000 	   23.5480 
    0.6790 	   10.5455 	    0.0000 	   44.0000 	   23.5860 
    0.4501 	   10.5630 	    0.0000 	   44.0000 	   23.6210 
    0.6332 	   10.5795 	    0.0000 	   44.0000 	   23.6540 
    0.4959 	   10.5970 	    0.0000 	   44.0000 	   23.6890 
    0.3128 	   10.6140 	    0.0000 	   44.0000 	   23.7230 
    0.4501 	   10.6315 	    0.0000 	   44.0000 	   23.7580 
    0.6790 	   10.6510 	    0.0000 	   44.0000 	   23.7970 
    0.5722 	   10.6680 	    0.0000 	   44.0000 	   23.8310 
    0.5722 	   10.6845 	    0.0000 	   44.0000 	   23.8640 
    0.4501 	   10.7015 	    0.0000 	   44.0000 	   23.8980 
    0.5112 	   10.7190 	    0.0000 	   44.0000 	   23.9330 
    0.4959 	   10.7365 	    0.0000 	   44.0000 	   23.9681 
    0.6027 	   10.7535 	    0.0000 	   44.0000 	   24.0021 
    0.4044 	   10.7710 	    0.0000 	   44.0000 	   24.0371 
    0.5417 	   10.7885 	    0.0000 	   44.0000 	   24.0721 
    0.5264 	   10.8060 	    0.0000 	   44.0000 	   24.1071 
    0.5875 	   10.8225 	    0.0000 	   44.0000 	   24.1401 
    0.5722 	   10.8420 	    0.0000 	   44.0000 	   24.1791 
    0.5570 	   10.8595 	    0.0000 	   44.0000 	   24.2141 
    0.6180 	   10.8770 	    0.0000 	   44.0000 	   24.2491 
    0.2823 	   10.8940 	    0.0000 	   44.0000 	   24.2831 
    0.6485 	   10.9090 	    0.0000 	   44.0000 	   24.3131 
    0.5570 	   10.9245 	    0.0000 	   44.0000 	   24.3441 
    0.5875 	   10.9400 	    0.0000 	   44.0000 	   24.3751 
    0.6027 	   10.9550 	    0.0000 	   44.0000 	   24.4051 
    0.6638 	   10.9735 	    0.0000 	   44.0000 	   24.4421 
    0.6485 	   10.9910 	    0.0000 	   44.0000 	   24.4771 
    0.5264 	   11.0085 	    0.0000 	   44.0000 	   24.5121 
    0.2976 	   11.0255 	    0.0000 	   44.0000 	   24.5461 
    0.6485 	   11.0440 	    0.0000 	   44.0000 	   24.5831 
    0.6027 	   11.0625 	    0.0000 	   44.0000 	   24.6201 
    0.7553 	   11.0805 	    0.0000 	   44.0000 	   24.6561 
    0.6638 	   11.0975 	    0.0000 	   44.0000 	   24.6901 
    0.6180 	   11.1145 	    0.0000 	   44.0000 	   24.7241 
    0.6180 	   11.1320 	    0.0000 	   44.0000 	   24.7591 
    0.7248 	   11.1495 	    0.0000 	   44.0000 	   24.7941 
    0.2823 	   11.1675 	    0.0000 	   44.0000 	   24.8301 
    0.4959 	   11.1855 	    0.0000 	   44.0000 	   24.8661 
    0.7858 	   11.2025 	    0.0000 	   44.0000 	   24.9001 
    0.6638 	   11.2195 	    0.0000 	   44.0000 	   24.9341 
    0.5875 	   11.2375 	    0.0000 	   44.0000 	   24.9701 
    0.6027 	   11.2555 	    0.0000 	   44.0000 	   25.0061 
    0.6180 	   11.2725 	    0.0000 	   44.0000 	   25.0401 
    0.6027 	   11.2900 	    0.0000 	   44.0000 	   25.0751 
    0.6485 	   11.3065 	    0.0000 	   44.0000 	   25.1081 
    0.6027 	   11.3235 	    0.0000 	   44.0000 	   25.1421 
    0.5722 	   11.3410 	    0.0000 	   44.0000 	   25.1771 
    0.5570 	   11.3585 	    0.0000 	   44.0000 	   25.2121 
    0.6180 	   11.3755 	    0.0000 	   44.0000 	   25.2461 
    0.5417 	   11.3930 	    0.0000 	   44.0000 	   25.2811 
    0.5264 	   11.4105 	    0.0000 	   44.0000 	   25.3161 
    0.4501 	   11.4275 	    0.0000 	   44.0000 	   25.3501 
    0.5417 	   11.4470 	    0.0000 	   44.0000 	   25.3891 
    0.6790 	   11.4655 	    0.0000 	   44.0000 	   25.4261 
    0.5264 	   11.4825 	    0.0000 	   44.0000 	   25.4601 
    0.6790 	   11.5010 	    0.0000 	   44.0000 	   25.4971 
    0.6180 	   11.5185 	    0.0000 	   44.0000 	   25.5321 
    0.4654 	   11.5365 	    0.0000 	   44.0000 	   25.5681 
    0.6332 	   11.5540 	    0.0000 	   44.0000 	   25.6031 
    0.6638 	   11.5705 	    0.0000 	   44.0000 	   25.6361 
    0.6180 	   11.5885 	    0.0000 	   44.0000 	   25.6721 
    0.6485 	   11.6070 	    0.0000 	   44.0000 	   25.7092 
    0.6485 	   11.6250 	    0.0000 	   44.0000 	   25.7452 
    0.6180 	   11.6445 	    0.0000 	   44.0000 	   25.7842 
    0.5722 	   11.6625 	    0.0000 	   44.0000 	   25.8202 
    0.5570 	   11.6795 	    0.0000 	   44.0000 	   25.8542 
    0.6027 	   11.6965 	    0.0000 	   44.0000 	   25.8882 
    0.5264 	   11.7150 	    0.0000 	   44.0000 	   25.9252 
    0.5722 	   11.7315 	    0.0000 	   44.0000 	   25.9582 
    0.6943 	   11.7495 	    0.0000 	   44.0000 	   25.9942 
    0.7095 	   11.7675 	    0.0000 	   44.0000 	   26.0302 
    0.4807 	   11.7850 	    0.0000 	   44.0000 	   26.0652 
    0.2823 	   11.8020 	    0.0000 	   44.0000 	   26.0992 
    0.6638 	   11.8200 	    0.0000 	   44.0000 	   26.1352 
    0.5875 	   11.8395 	    0.0000 	   44.0000 	   26.1742 
    0.5264 	   11.8550 	    0.0000 	   44.0000 	   26.2052 
    0.7095 	   11.8700 	    0.0000 	   44.0000 	   26.2352 
    0.6180 	   11.8860 	    0.0000 	   44.0000 	   26.2672 
    0.6180 	   11.9010 	    0.0000 	   44.0000 	   26.2972 
    0.6027 	   11.9170 	    0.0000 	   44.0000 	   26.3292 
    0.5417 	   11.9350 	    0.0000 	   44.0000 	   26.3652 
    0.6332 	   11.9510 	    0.0000 	   44.0000 	   26.3972 
    0.6790 	   11.9675 	    0.0000 	   44.0000 	   26.4302 
    0.8164 	   11.9860 	    0.0000 	   44.0000 	   26.4672 
    0.7095 	   12.0035 	    0.0000 	   44.0000 	   26.5022 
    0.7095 	   12.0215 	    0.0000 	   44.0000 	   26.5382 
    0.6180 	   12.0405 	    0.0000 	   44.0000 	   26.5762 
    0.6638 	   12.0580 	    0.0000 	   44.0000 	   26.6112 
    0.5875 	   12.0740 	    0.0000 	   44.0000 	   26.6432 
    0.6180 	   12.0910 	    0.0000 	   44.0000 	   26.6772 
    0.6638 	   12.1080 	    0.0000 	   44.0000 	   26.7112 
    0.5264 	   12.1265 	    0.0000 	   44.0000 	   26.7482 
    0.5875 	   12.1435 	    0.0000 	   44.0000 	   26.7822 
    0.5570 	   12.1610 	    0.0000 	   44.0000 	   26.8172 
    0.6332 	   12.1780 	    0.0000 	   44.0000 	   26.8512 
    0.6180 	   12.1960 	    0.0000 	   44.0000 	   26.8872 
    0.5417 	   12.2135 	    0.0000 	   44.0000 	   26.9222 
    0.5264 	   12.2310 	    0.0000 	   44.0000 	   26.9572 
    0.6332 	   12.2510 	    0.0000 	   44.0000 	   26.9972 
    0.7095 	   12.2675 	    0.0000 	   44.0000 	   27.0302 
    0.6332 	   12.2865 	    0.0000 	   44.0000 	   27.0682 
    0.2976 	   12.3055 	    0.0000 	   44.0000 	   27.1062 
    0.4807 	   12.3225 	    0.0000 	   44.0000 	   27.1402 
    0.5875 	   12.3400 	    0.0000 	   44.0000 	   27.1752 
    0.4196 	   12.3580 	    0.0000 	   44.0000 	   27.2112 
    0.6485 	   12.3755 	    0.0000 	   44.0000 	   27.2462 
    0.5570 	   12.3930 	    0.0000 	   44.0000 	   27.2812 
    0.5722 	   12.4100 	    0.0000 	   44.0000 	   27.3152 
    0.2976 	   12.4280 	    0.0000 	   44.0000 	   27.3512 
    0.5112 	   12.4445 	    0.0000 	   44.0000 	   27.3842 
    0.6180 	   12.4625 	    0.0000 	   44.0000 	   27.4202 
    0.6485 	   12.4790 	    0.0000 	   44.0000 	   27.4533 
    0.5417 	   12.4965 	    0.0000 	   44.0000 	   27.4883 
    0.3738 	   12.5155 	    0.0000 	   44.0000 	   27.5263 
    0.5722 	   12.5330 	    0.0000 	   44.0000 	   27.5613 
    0.6943 	   12.5530 	    0.0000 	   44.0000 	   27.6013 
    0.5264 	   12.5705 	    0.0000 	   44.0000 	   27.6363 
    0.7248 	   12.5875 	    0.0000 	   44.0000 	   27.6703 
    0.7706 	   12.6070 	    0.0000 	   44.0000 	   27.7093 
    0.5875 	   12.6240 	    0.0000 	   44.0000 	   27.7433 
    0.4044 	   12.6420 	    0.0000 	   44.0000 	   27.7793 
    0.6638 	   12.6605 	    0.0000 	   44.0000 	   27.8163 
    0.6180 	   12.6785 	    0.0000 	   44.0000 	   27.8523 
    0.6485 	   12.6955 	    0.0000 	   44.0000 	   27.8863 
    0.7095 	   12.7115 	    0.0000 	   44.0000 	   27.9183 
    0.6332 	   12.7275 	    0.0000 	   44.0000 	   27.9503 
    0.6027 	   12.7445 	    0.0000 	   44.0000 	   27.9843 
    0.6027 	   12.7620 	    0.0000 	   44.0000 	   28.0193 
    0.6332 	   12.7795 	    0.0000 	   44.0000 	   28.0543 
    0.5722 	   12.7985 	    0.0000 	   44.0000 	   28.0923 
    0.5875 	   12.8165 	    0.0000 	   44.0000 	   28.1283 
    0.6790 	   12.8345 	    0.0000 	   44.0000 	   28.1643 
    0.6943 	   12.8530 	    0.0000 	   44.0000 	   28.2013 
    0.5722 	   12.8705 	    0.0000 	   44.0000 	   28.2363 
    0.4349 	   12.8875 	    0.0000 	   44.0000 	   28.2703 
    0.5875 	   12.9060 	    0.0000 	   44.0000 	   28.3073 
    0.6027 	   12.9230 	    0.0000 	   44.0000 	   28.3413 
    0.5875 	   12.9410 	    0.0000 	   44.0000 	   28.3773 
    0.6180 	   12.9580 	    0.0000 	   44.0000 	   28.4113 
    0.4807 	   12.9760 	    0.0000 	   44.0000 	   28.4473 
    0.5875 	   12.9930 	    0.0000 	   44.0000 	   28.4813 
    0.7706 	   13.0115 	    0.0000 	   44.0000 	   28.5183 
    0.6180 	   13.0290 	    0.0000 	   44.0000 	   28.5533 
    0.5112 	   13.0500 	    0.0000 	   44.0000 	   28.5953 
    0.7706 	   13.0670 	    0.0000 	   44.0000 	   28.6293 
    0.7095 	   13.0860 	    0.0000 	   44.0000 	   28.6673 
    0.6943 	   13.1040 	    0.0000 	   44.0000 	   28.7033 
    0.6638 	   13.1220 	    0.0000 	   44.0000 	   28.7393 
    0.6790 	   13.1400 	    0.0000 	   44.0000 	   28.7753 
    0.6332 	   13.1585 	    0.0000 	   44.0000 	   28.8123 
    0.4044 	   13.1760 	    0.0000 	   44.0000 	   28.8473 
    0.5417 	   13.1950 	    0.0000 	   44.0000 	   28.8853 
    0.7248 	   13.2120 	    0.0000 	   44.0000 	   28.9193 
    0.5112 	   13.2300 	    0.0000 	   44.0000 	   28.9553 
    0.6180 	   13.2475 	    0.0000 	   44.0000 	   28.9903 
    0.6790 	   13.2645 	    0.0000 	   44.0000 	   29.0243 
    0.7095 	   13.2810 	    0.0000 	   44.0000 	   29.0573 
    0.5264 	   13.3005 	    0.0000 	   44.0000 	   29.0963 
    0.7401 	   13.3180 	    0.0000 	   44.0000 	   29.1313 
    0.6027 	   13.3355 	    0.0000 	   44.0000 	   29.1663 
    0.5417 	   13.3530 	    0.0000 	   44.0000 	   29.2014 
    0.6485 	   13.3715 	    0.0000 	   44.0000 	   29.2384 
    0.5722 	   13.3900 	    0.0000 	   44.0000 	   29.2754 
    0.6180 	   13.4075 	    0.0000 	   44.0000 	   29.3104 
    0.6332 	   13.4255 	    0.0000 	   44.0000 	   29.3464 
    0.5112 	   13.4445 	    0.0000 	   44.0000 	   29.3844 
    0.6027 	   13.4620 	    0.0000 	   44.0000 	   29.4194 
    0.6332 	   13.4805 	    0.0000 	   44.0000 	   29.4564 
    0.7706 	   13.4985 	    0.0000 	   44.0000 	   29.4924 
    0.6180 	   13.5155 	    0.0000 	   44.0000 	   29.5264 
    0.5264 	   13.5325 	    0.0000 	   44.0000 	   29.5604 
    0.5570 	   13.5520 	    0.0000 	   44.0000 	   29.5994 
    0.5722 	   13.5690 	    0.0000 	   44.0000 	   29.6334 
    0.6180 	   13.5860 	    0.0000 	   44.0000 	   29.6674 
    0.6943 	   13.6040 	    0.0000 	   44.0000 	   29.7034 
    0.5875 	   13.6210 	    0.0000 	   44.0000 	   29.7374 
    0.5875 	   13.6400 	    0.0000 	   44.0000 	   29.7754 
    0.5722 	   13.6575 	    0.0000 	   44.0000 	   29.8104 
    0.6485 	   13.6755 	    0.0000 	   44.0000 	   29.8464 
    0.7248 	   13.6935 	    0.0000 	   44.0000 	   29.8824 
    0.5570 	   13.7110 	    0.0000 	   44.0000 	   29.9174 
    0.6180 	   13.7290 	    0.0000 	   44.0000 	   29.9534 
    0.6638 	   13.7470 	    0.0000 	   44.0000 	   29.9894 
    0.5264 	   13.7645 	    0.0000 	   44.0000 	   30.0244 
    0.6790 	   13.7835 	    0.0000 	   44.0000 	   30.0624 
    0.6027 	   13.8025 	    0.0000 	   44.0000 	   30.1004 
    0.6943 	   13.8195 	    0.0000 	   44.0000 	   30.1344 
    0.5722 	   13.8365 	    0.0000 	   44.0000 	   30.1684 
    0.6943 	   13.8535 	    0.0000 	   44.0000 	   30.2024 
    0.7095 	   13.8685 	    0.0000 	   44.0000 	   30.2324 
    0.6638 	   13.8855 	    0.0000 	   44.0000 	   30.2664 
    0.6180 	   13.9020 	    0.0000 	   44.0000 	   30.2994 
    0.6790 	   13.9195 	    0.0000 	   44.0000 	   30.3344 
    0.5264 	   13.9375 	    0.0000 	   44.0000 	   30.3704 
    0.6485 	   13.9540 	    0.0000 	   44.0000 	   30.4034 
    0.5264 	   13.9700 	    0.0000 	   44.0000 	   30.4354 
    0.7095 	   13.9870 	    0.0000 	   44.0000 	   30.4694 
    0.5570 	   14.0040 	    0.0000 	   44.0000 	   30.5034 
    0.6638 	   14.0210 	    0.0000 	   44.0000 	   30.5374 
    0.6332 	   14.0400 	    0.0000 	   44.0000 	   30.5754 
    0.5875 	   14.0570 	    0.0000 	   44.0000 	   30.6094 
    0.6485 	   14.0745 	    0.0000 	   44.0000 	   30.6444 
    0.8011 	   14.0925 	    0.0000 	   44.0000 	   30.6804 
    0.7858 	   14.1105 	    0.0000 	   44.0000 	   30.7164 
    0.4959 	   14.1285 	    0.0000 	   44.0000 	   30.7524 
    0.3586 	   14.1465 	    0.0000 	   44.0000 	   30.7884 
    0.6790 	   14.1640 	    0.0000 	   44.0000 	   30.8234 
    0.8774 	   14.1815 	    0.0000 	   44.0000 	   30.8584 
    0.6943 	   14.2005 	    0.0000 	   44.0000 	   30.8964 
    0.5875 	   14.2195 	    0.0000 	   44.0000 	   30.9345 
    0.6332 	   14.2370 	    0.0000 	   44.0000 	   30.9695 
    0.6790 	   14.2550 	    0.0000 	   44.0000 	   31.0055 
    0.5722 	   14.2725 	    0.0000 	   44.0000 	   31.0405 
    0.5112 	   14.2930 	    0.0000 	   44.0000 	   31.0815 
    0.6485 	   14.3115 	    0.0000 	   44.0000 	   31.1185 
    0.7095 	   14.3290 	    0.0000 	   44.0000 	   31.1535 
    0.6638 	   14.3460 	    0.0000 	   44.0000 	   31.1875 
    0.6943 	   14.3645 	    0.0000 	   44.0000 	   31.2245 
    0.8469 	   14.3815 	    0.0000 	   44.0000 	   31.2585 
    0.6943 	   14.3995 	    0.0000 	   44.0000 	   31.2945 
    0.6027 	   14.4170 	    0.0000 	   44.0000 	   31.3295 
    0.6943 	   14.4345 	    0.0000 	   44.0000 	   31.3645 
    0.6790 	   14.4520 	    0.0000 	   44.0000 	   31.3995 
    0.6943 	   14.4700 	    0.0000 	   44.0000 	   31.4355 
    0.5570 	   14.4880 	    0.0000 	   44.0000 	   31.4715 
    0.6485 	   14.5055 	    0.0000 	   44.0000 	   31.5065 
    0.6332 	   14.5240 	    0.0000 	   44.0000 	   31.5435 
    0.6027 	   14.5435 	    0.0000 	   44.0000 	   31.5825 
    0.6790 	   14.5620 	    0.0000 	   44.0000 	   31.6195 
    0.6027 	   14.5815 	    0.0000 	   44.0000 	   31.6585 
    0.6790 	   14.5990 	    0.0000 	   44.0000 	   31.6935 
    0.5875 	   14.6170 	    0.0000 	   44.0000 	   31.7295 
    0.6027 	   14.6345 	    0.0000 	   44.0000 	   31.7645 
    0.8011 	   14.6525 	    0.0000 	   44.0000 	   31.8005 
    0.6943 	   14.6700 	    0.0000 	   44.0000 	   31.8355 
    0.6790 	   14.6870 	    0.0000 	   44.0000 	   31.8695 
    0.5417 	   14.7045 	    0.0000 	   44.0000 	   31.9045 
    0.6332 	   14.7220 	    0.0000 	   44.0000 	   31.9395 
    0.5875 	   14.7390 	    0.0000 	   44.0000 	   31.9735 
    0.6027 	   14.7580 	    0.0000 	   44.0000 	   32.0115 
    0.4654 	   14.7755 	    0.0000 	   44.0000 	   32.0465 
    0.5417 	   14.7965 	    0.0000 	   44.0000 	   32.0885 
    0.6180 	   14.8150 	    0.0000 	   44.0000 	   32.1255 
    0.7858 	   14.8330 	    0.0000 	   44.0000 	   32.1615 
    0.6638 	   14.8510 	    0.0000 	   44.0000 	   32.1975 
    0.6943 	   14.8680 	    0.0000 	   44.0000 	   32.2315 
    0.6790 	   14.8855 	    0.0000 	   44.0000 	   32.2665 
    0.5722 	   14.9040 	    0.0000 	   44.0000 	   32.3035 
    0.6638 	   14.9230 	    0.0000 	   44.0000 	   32.3415 
    0.6332 	   14.9415 	    0.0000 	   44.0000 	   32.3785 
    0.6943 	   14.9590 	    0.0000 	   44.0000 	   32.4135 
    0.6790 	   14.9775 	    0.0000 	   44.0000 	   32.4505 
    0.5570 	   14.9945 	    0.0000 	   44.0000 	   32.4845 
    0.6790 	   15.0140 	    0.0000 	   44.0000 	   32.5235 
    0.6638 	   15.0320 	    0.0000 	   44.0000 	   32.5595 
    0.6790 	   15.0515 	    0.0000 	   44.0000 	   32.5985 
    0.7095 	   15.0685 	    0.0000 	   44.0000 	   32.6325 
    0.6790 	   15.0875 	    0.0000 	   44.0000 	   32.6705 
    0.7401 	   15.1055 	    0.0000 	   44.0000 	   32.7066 
    0.6027 	   15.1240 	    0.0000 	   44.0000 	   32.7436 
    0.7858 	   15.1415 	    0.0000 	   44.0000 	   32.7786 
    0.5570 	   15.1595 	    0.0000 	   44.0000 	   32.8146 
    0.3891 	   15.1780 	    0.0000 	   44.0000 	   32.8516 
    0.6485 	   15.1955 	    0.0000 	   44.0000 	   32.8866 
    0.4501 	   15.2140 	    0.0000 	   44.0000 	   32.9236 
    0.6027 	   15.2325 	    0.0000 	   44.0000 	   32.9606 
    0.8011 	   15.2500 	    0.0000 	   44.0000 	   32.9956 
    0.7858 	   15.2675 	    0.0000 	   44.0000 	   33.0306 
    0.5875 	   15.2840 	    0.0000 	   44.0000 	   33.0636 
    0.5722 	   15.3030 	    0.0000 	   44.0000 	   33.1016 
    0.6027 	   15.3210 	    0.0000 	   44.0000 	   33.1376 
    0.6180 	   15.3380 	    0.0000 	   44.0000 	   33.1716 
    0.6638 	   15.3570 	    0.0000 	   44.0000 	   33.2096 
    0.8011 	   15.3750 	    0.0000 	   44.0000 	   33.2456 
    0.6180 	   15.3940 	    0.0000 	   44.0000 	   33.2836 
    0.6638 	   15.4120 	    0.0000 	   44.0000 	   33.3196 
    0.5570 	   15.4305 	    0.0000 	   44.0000 	   33.3566 
    0.6332 	   15.4485 	    0.0000 	   44.0000 	   33.3926 
    0.7248 	   15.4665 	    0.0000 	   44.0000 	   33.4286 
    0.8011 	   15.4850 	    0.0000 	   44.0000 	   33.4656 
    0.8469 	   15.5040 	    0.0000 	   44.0000 	   33.5036 
    0.6180 	   15.5240 	    0.0000 	   44.0000 	   33.5436 
    0.6943 	   15.5445 	    0.0000 	   44.0000 	   33.5846 
    0.3738 	   15.5615 	    0.0000 	   44.0000 	   33.6186 
    0.6332 	   15.5815 	    0.0000 	   44.0000 	   33.6576 
    0.5264 	   15.6000 	    0.0000 	   44.0000 	   33.6956 
    0.7553 	   15.6195 	    0.0000 	   44.0000 	   33.7336 
    0.6332 	   15.6375 	    0.0000 	   44.0000 	   33.7706 
    0.6638 	   15.6555 	    0.0000 	   44.0000 	   33.8066 
    0.4196 	   15.6740 	    0.0000 	   44.0000 	   33.8436 
    0.6790 	   15.6925 	    0.0000 	   44.0000 	   33.8806 
    0.6638 	   15.7110 	    0.0000 	   44.0000 	   33.9176 
    0.6027 	   15.7280 	    0.0000 	   44.0000 	   33.9516 
    0.6180 	   15.7455 	    0.0000 	   44.0000 	   33.9866 
    0.7553 	   15.7645 	    0.0000 	   44.0000 	   34.0246 
    0.3433 	   15.7815 	    0.0000 	   44.0000 	   34.0586 
    0.6485 	   15.8000 	    0.0000 	   44.0000 	   34.0956 
    0.5264 	   15.8180 	    0.0000 	   44.0000 	   34.1316 
    0.6332 	   15.8365 	    0.0000 	   44.0000 	   34.1686 
    0.7248 	   15.8550 	    0.0000 	   44.0000 	   34.2056 
    0.5722 	   15.8735 	    0.0000 	   44.0000 	   34.2426 
    0.6332 	   15.8915 	    0.0000 	   44.0000 	   34.2786 
    0.7553 	   15.9100 	    0.0000 	   44.0000 	   34.3156 
    0.7706 	   15.9285 	    0.0000 	   44.0000 	   34.3526 
    0.6485 	   15.9465 	    0.0000 	   44.0000 	   34.3886 
    0.6332 	   15.9640 	    0.0000 	   44.0000 	   34.4236 
    0.5722 	   15.9830 	    0.0000 	   44.0000 	   34.4617 
    0.7095 	   16.0010 	    0.0000 	   44.0000 	   34.4977 
    0.7401 	   16.0195 	    0.0000 	   44.0000 	   34.5347 
    0.6943 	   16.0395 	    0.0000 	   44.0000 	   34.5747 
    0.9079 	   16.0580 	    0.0000 	   44.0000 	   34.6117 
    0.6943 	   16.0770 	    0.0000 	   44.0000 	   34.6497 
    0.6790 	   16.0960 	    0.0000 	   44.0000 	   34.6877 
    0.6790 	   16.1145 	    0.0000 	   44.0000 	   34.7247 
    0.6790 	   16.1325 	    0.0000 	   44.0000 	   34.7607 
    0.7401 	   16.1500 	    0.0000 	   44.0000 	   34.7957 
    0.6638 	   16.1690 	    0.0000 	   44.0000 	   34.8337 
    0.5875 	   16.1865 	    0.0000 	   44.0000 	   34.8687 
    0.8316 	   16.2045 	    0.0000 	   44.0000 	   34.9047 
    0.7858 	   16.2220 	    0.0000 	   44.0000 	   34.9397 
    0.6790 	   16.2400 	    0.0000 	   44.0000 	   34.9757 
    0.6485 	   16.2585 	    0.0000 	   44.0000 	   35.0127 
    0.7401 	   16.2760 	    0.0000 	   44.0000 	   35.0477 
    0.6638 	   16.2945 	    0.0000 	   44.0000 	   35.0847 
    0.6638 	   16.3130 	    0.0000 	   44.0000 	   35.1217 
    0.6180 	   16.3310 	    0.0000 	   44.0000 	   35.1577 
    0.7095 	   16.3500 	    0.0000 	   44.0000 	   35.1957 
    0.6943 	   16.3685 	    0.0000 	   44.0000 	   35.2327 
    0.6943 	   16.3865 	    0.0000 	   44.0000 	   35.2687 
    0.6638 	   16.4045 	    0.0000 	   44.0000 	   35.3047 
    0.7095 	   16.4210 	    0.0000 	   44.0000 	   35.3377 
    0.6180 	   16.4390 	    0.0000 	   44.0000 	   35.3737 
    0.6638 	   16.4565 	    0.0000 	   44.0000 	   35.4087 
    0.6332 	   16.4750 	    0.0000 	   44.0000 	   35.4457 
    0.7401 	   16.4935 	    0.0000 	   44.0000 	   35.4827 
    0.4501 	   16.5110 	    0.0000 	   44.0000 	   35.5177 
    0.6485 	   16.5300 	    0.0000 	   44.0000 	   35.5557 
    0.6332 	   16.5500 	    0.0000 	   44.0000 	   35.5957 
    0.6180 	   16.5670 	    0.0000 	   44.0000 	   35.6297 
    0.6790 	   16.5855 	    0.0000 	   44.0000 	   35.6667 
    0.8774 	   16.6040 	    0.0000 	   44.0000 	   35.7037 
    0.6943 	   16.6220 	    0.0000 	   44.0000 	   35.7397 
    0.8316 	   16.6400 	    0.0000 	   44.0000 	   35.7757 
    0.6943 	   16.6570 	    0.0000 	   44.0000 	   35.8097 
    0.7095 	   16.6755 	    0.0000 	   44.0000 	   35.8467 
    0.7401 	   16.6940 	    0.0000 	   44.0000 	   35.8837 
    0.7095 	   16.7125 	    0.0000 	   44.0000 	   35.9207 
    0.6485 	   16.7310 	    0.0000 	   44.0000 	   35.9577 
    0.8164 	   16.7495 	    0.0000 	   44.0000 	   35.9947 
    0.6790 	   16.7680 	    0.0000 	   44.0000 	   36.0317 
    0.6638 	   16.7855 	    0.0000 	   44.0000 	   36.0667 
    0.5417 	   16.8040 	    0.0000 	   44.0000 	   36.1037 
    0.6180 	   16.8225 	    0.0000 	   44.0000 	   36.1407 
    0.6027 	   16.8405 	    0.0000 	   44.0000 	   36.1768 
    0.5722 	   16.8585 	    0.0000 	   44.0000 	   36.2128 
    0.7401 	   16.8770 	    0.0000 	   44.0000 	   36.2498 
    0.6485 	   16.8960 	    0.0000 	   44.0000 	   36.2878 
    0.6638 	   16.9135 	    0.0000 	   44.0000 	   36.3228 
    0.5875 	   16.9315 	    0.0000 	   44.0000 	   36.3588 
    0.6485 	   16.9500 	    0.0000 	   44.0000 	   36.3958 
    0.6790 	   16.9680 	    0.0000 	   44.0000 	   36.4318 
    0.6485 	   16.9860 	    0.0000 	   44.0000 	   36.4678 
    0.5417 	   17.0055 	    0.0000 	   44.0000 	   36.5068 
    0.7248 	   17.0230 	    0.0000 	   44.0000 	   36.5418 
    0.6638 	   17.0430 	    0.0000 	   44.0000 	   36.5818 
    0.4807 	   17.0605 	    0.0000 	   44.0000 	   36.6168 
    0.8011 	   17.0785 	    0.0000 	   44.0000 	   36.6528 
    0.6180 	   17.0970 	    0.0000 	   44.0000 	   36.6898 
    0.8316 	   17.1145 	    0.0000 	   44.0000 	   36.7248 
    0.5722 	   17.1320 	    0.0000 	   44.0000 	   36.7598 
    0.5417 	   17.1485 	    0.0000 	   44.0000 	   36.7928 
    0.6638 	   17.1645 	    0.0000 	   44.0000 	   36.8248 
    0.7706 	   17.1805 	    0.0000 	   44.0000 	   36.8568 
    0.9079 	   17.1975 	    0.0000 	   44.0000 	   36.8908 
    0.5875 	   17.2150 	    0.0000 	   44.0000 	   36.9258 
    0.7706 	   17.2345 	    0.0000 	   44.0000 	   36.9648 
    0.6790 	   17.2530 	    0.0000 	   44.0000 	   37.0018 
    0.7401 	   17.2715 	    0.0000 	   44.0000 	   37.0388 
    0.7095 	   17.2905 	    0.0000 	   44.0000 	   37.0768 
    0.6943 	   17.3095 	    0.0000 	   44.0000 	   37.1148 
    0.7095 	   17.3290 	    0.0000 	   44.0000 	   37.1538 
    0.3891 	   17.3465 	    0.0000 	   44.0000 	   37.1888 
    0.7401 	   17.3640 	    0.0000 	   44.0000 	   37.2238 
    0.6790 	   17.3815 	    0.0000 	   44.0000 	   37.2588 
    0.5722 	   17.3995 	    0.0000 	   44.0000 	   37.2948 
    0.6180 	   17.4180 	    0.0000 	   44.0000 	   37.3318 
    0.6485 	   17.4365 	    0.0000 	   44.0000 	   37.3688 
    0.5722 	   17.4550 	    0.0000 	   44.0000 	   37.4058 
    0.6790 	   17.4735 	    0.0000 	   44.0000 	   37.4428 
    0.8164 	   17.4920 	    0.0000 	   44.0000 	   37.4798 
    0.3281 	   17.5105 	    0.0000 	   44.0000 	   37.5168 
    0.7401 	   17.5300 	    0.0000 	   44.0000 	   37.5558 
    0.5417 	   17.5505 	    0.0000 	   44.0000 	   37.5968 
    0.5722 	   17.5680 	    0.0000 	   44.0000 	   37.6318 
    0.6332 	   17.5865 	    0.0000 	   44.0000 	   37.6688 
    0.8621 	   17.6045 	    0.0000 	   44.0000 	   37.7048 
    0.7706 	   17.6225 	    0.0000 	   44.0000 	   37.7408 
    0.7553 	   17.6410 	    0.0000 	   44.0000 	   37.7778 
    0.7248 	   17.6595 	    0.0000 	   44.0000 	   37.8148 
    0.4044 	   17.6775 	    0.0000 	   44.0000 	   37.8508 
    0.8164 	   17.6960 	    0.0000 	   44.0000 	   37.8878 
    0.5570 	   17.7140 	    0.0000 	   44.0000 	   37.9239 
    0.7553 	   17.7305 	    0.0000 	   44.0000 	   37.9569 
    0.4807 	   17.7480 	    0.0000 	   44.0000 	   37.9919 
    0.7095 	   17.7660 	    0.0000 	   44.0000 	   38.0279 
    0.6180 	   17.7850 	    0.0000 	   44.0000 	   38.0659 
    0.8774 	   17.8040 	    0.0000 	   44.0000 	   38.1039 
    0.8164 	   17.8225 	    0.0000 	   44.0000 	   38.1409 
    0.7401 	   17.8405 	    0.0000 	   44.0000 	   38.1769 
    0.7553 	   17.8595 	    0.0000 	   44.0000 	   38.2149 
    0.6790 	   17.8775 	    0.0000 	   44.0000 	   38.2509 
    0.7401 	   17.8960 	    0.0000 	   44.0000 	   38.2879 
    0.7553 	   17.9165 	    0.0000 	   44.0000 	   38.3289 
    0.6332 	   17.9355 	    0.0000 	   44.0000 	   38.3669 
    0.6943 	   17.9535 	    0.0000 	   44.0000 	   38.4029 
    0.7553 	   17.9715 	    0.0000 	   44.0000 	   38.4389 
    0.6485 	   17.9900 	    0.0000 	   44.0000 	   38.4759 
    0.7095 	   18.0085 	    0.0000 	   44.0000 	   38.5129 
    0.5722 	   18.0265 	    0.0000 	   44.0000 	   38.5489 
    0.7248 	   18.0455 	    0.0000 	   44.0000 	   38.5869 
    0.6180 	   18.0640 	    0.0000 	   44.0000 	   38.6239 
    0.6027 	   18.0820 	    0.0000 	   44.0000 	   38.6599 
    0.6332 	   18.1005 	    0.0000 	   44.0000 	   38.6969 
    0.8164 	   18.1195 	    0.0000 	   44.0000 	   38.7349 
    0.6943 	   18.1375 	    0.0000 	   44.0000 	   38.7709 
    0.8621 	   18.1570 	    0.0000 	   44.0000 	   38.8099 
    0.7858 	   18.1755 	    0.0000 	   44.0000 	   38.8469 
    0.6943 	   18.1935 	    0.0000 	   44.0000 	   38.8829 
    0.8011 	   18.2115 	    0.0000 	   44.0000 	   38.9189 
    0.6638 	   18.2300 	    0.0000 	   44.0000 	   38.9559 
    0.8316 	   18.2475 	    0.0000 	   44.0000 	   38.9909 
    0.7095 	   18.2635 	    0.0000 	   44.0000 	   39.0229 
    0.7706 	   18.2815 	    0.0000 	   44.0000 	   39.0589 
    0.4959 	   18.2995 	    0.0000 	   44.0000 	   39.0949 
    0.6180 	   18.3185 	    0.0000 	   44.0000 	   39.1329 
    0.6485 	   18.3370 	    0.0000 	   44.0000 	   39.1699 
    0.6485 	   18.3550 	    0.0000 	   44.0000 	   39.2059 
    0.7858 	   18.3710 	    0.0000 	   44.0000 	   39.2379 
    0.6790 	   18.3880 	    0.0000 	   44.0000 	   39.2719 
    0.7401 	   18.4045 	    0.0000 	   44.0000 	   39.3049 
    0.5417 	   18.4205 	    0.0000 	   44.0000 	   39.3369 
    0.6790 	   18.4390 	    0.0000 	   44.0000 	   39.3739 
    0.6943 	   18.4580 	    0.0000 	   44.0000 	   39.4119 
    0.8011 	   18.4765 	    0.0000 	   44.0000 	   39.4489 
    0.5875 	   18.4950 	    0.0000 	   44.0000 	   39.4859 
    0.7401 	   18.5135 	    0.0000 	   44.0000 	   39.5229 
    0.6638 	   18.5315 	    0.0000 	   44.0000 	   39.5589 
    0.6790 	   18.5520 	    0.0000 	   44.0000 	   39.5999 
    0.7706 	   18.5690 	    0.0000 	   44.0000 	   39.6339 
    0.8164 	   18.5885 	    0.0000 	   44.0000 	   39.6730 
    0.6485 	   18.6070 	    0.0000 	   44.0000 	   39.7090 
    0.6638 	   18.6255 	    0.0000 	   44.0000 	   39.7470 
    0.6943 	   18.6440 	    0.0000 	   44.0000 	   39.7840 
    0.7553 	   18.6630 	    0.0000 	   44.0000 	   39.8220 
    0.5570 	   18.6810 	    0.0000 	   44.0000 	   39.8580 
    0.9079 	   18.7015 	    0.0000 	   44.0000 	   39.8990 
    0.7858 	   18.7200 	    0.0000 	   44.0000 	   39.9360 
    0.7401 	   18.7380 	    0.0000 	   44.0000 	   39.9720 
    0.4807 	   18.7560 	    0.0000 	   44.0000 	   40.0080 
    0.5264 	   18.7745 	    0.0000 	   44.0000 	   40.0450 
    0.6180 	   18.7935 	    0.0000 	   44.0000 	   40.0830 
    0.6638 	   18.8120 	    0.0000 	   44.0000 	   40.1200 
    0.6638 	   18.8310 	    0.0000 	   44.0000 	   40.1580 
    0.8164 	   18.8485 	    0.0000 	   44.0000 	   40.1930 
    0.7553 	   18.8670 	    0.0000 	   44.0000 	   40.2300 
    0.8011 	   18.8875 	    0.0000 	   44.0000 	   40.2710 
    0.7553 	   18.9060 	    0.0000 	   44.0000 	   40.3080 
    0.7858 	   18.9245 	    0.0000 	   44.0000 	   40.3450 
    0.6943 	   18.9420 	    0.0000 	   44.0000 	   40.3800 
    0.8164 	   18.9610 	    0.0000 	   44.0000 	   40.4180 
    0.7095 	   18.9795 	    0.0000 	   44.0000 	   40.4550 
    0.4959 	   18.9985 	    0.0000 	   44.0000 	   40.4930 
    0.6638 	   19.0170 	    0.0000 	   44.0000 	   40.5300 
    0.8927 	   19.0360 	    0.0000 	   44.0000 	   40.5680 
    0.7401 	   19.0560 	    0.0000 	   44.0000 	   40.6080 
    0.8469 	   19.0745 	    0.0000 	   44.0000 	   40.6450 
    0.6790 	   19.0930 	    0.0000 	   44.0000 	   40.6820 
    0.7401 	   19.1115 	    0.0000 	   44.0000 	   40.7180 
    0.6790 	   19.1300 	    0.0000 	   44.0000 	   40.7550 
    0.6790 	   19.1490 	    0.0000 	   44.0000 	   40.7930 
    0.8011 	   19.1680 	    0.0000 	   44.0000 	   40.8310 
    0.7095 	   19.1870 	    0.0000 	   44.0000 	   40.8690 
    0.6943 	   19.2065 	    0.0000 	   44.0000 	   40.9080 
    0.8011 	   19.2255 	    0.0000 	   44.0000 	   40.9460 
    0.7095 	   19.2445 	    0.0000 	   44.0000 	   40.9840 
    0.7095 	   19.2620 	    0.0000 	   44.0000 	   41.0190 
    0.7858 	   19.2800 	    0.0000 	   44.0000 	   41.0550 
    0.7401 	   19.2990 	    0.0000 	   44.0000 	   41.0930 
    0.8316 	   19.3180 	    0.0000 	   44.0000 	   41.1310 
    0.6943 	   19.3370 	    0.0000 	   44.0000 	   41.1690 
    0.7401 	   19.3550 	    0.0000 	   44.0000 	   41.2050 
    0.6485 	   19.3745 	    0.0000 	   44.0000 	   41.2440 
    0.7248 	   19.3940 	    0.0000 	   44.0000 	   41.2830 
    0.4654 	   19.4125 	    0.0000 	   44.0000 	   41.3200 
    0.6790 	   19.4305 	    0.0000 	   44.0000 	   41.3560 
    0.5875 	   19.4490 	    0.0000 	   44.0000 	   41.3930 
    0.6943 	   19.4670 	    0.0000 	   44.0000 	   41.4291 
    0.7401 	   19.4835 	    0.0000 	   44.0000 	   41.4621 
    0.5570 	   19.5015 	    0.0000 	   44.0000 	   41.4981 
    0.6332 	   19.5195 	    0.0000 	   44.0000 	   41.5341 
    0.6790 	   19.5380 	    0.0000 	   44.0000 	   41.5711 
    0.8774 	   19.5545 	    0.0000 	   44.0000 	   41.6041 
    0.6638 	   19.5715 	    0.0000 	   44.0000 	   41.6381 
    0.6790 	   19.5880 	    0.0000 	   44.0000 	   41.6711 
    0.7095 	   19.6060 	    0.0000 	   44.0000 	   41.7071 
    0.7553 	   19.6250 	    0.0000 	   44.0000 	   41.7451 
    0.6638 	   19.6440 	    0.0000 	   44.0000 	   41.7831 
    0.6485 	   19.6625 	    0.0000 	   44.0000 	   41.8201 
    0.7401 	   19.6810 	    0.0000 	   44.0000 	   41.8571 
    0.7858 	   19.7005 	    0.0000 	   44.0000 	   41.8961 
    0.9232 	   19.7190 	    0.0000 	   44.0000 	   41.9331 
    0.7706 	   19.7385 	    0.0000 	   44.0000 	   41.9721 
    0.6485 	   19.7570 	    0.0000 	   44.0000 	   42.0091 
    0.7706 	   19.7755 	    0.0000 	   44.0000 	   42.0461 
    0.6485 	   19.7940 	    0.0000 	   44.0000 	   42.0831 
    0.7095 	   19.8120 	    0.0000 	   44.0000 	   42.1191 
    0.5875 	   19.8310 	    0.0000 	   44.0000 	   42.1561 
    0.7858 	   19.8495 	    0.0000 	   44.0000 	   42.1941 
    0.4349 	   19.8685 	    0.0000 	   44.0000 	   42.2321 
    0.6332 	   19.8870 	    0.0000 	   44.0000 	   42.2691 
    0.8011 	   19.9065 	    0.0000 	   44.0000 	   42.3081 
    0.6180 	   19.9250 	    0.0000 	   44.0000 	   42.3451 
    0.7553 	   19.9445 	    0.0000 	   44.0000 	   42.3841 
    0.6790 	   19.9640 	    0.0000 	   44.0000 	   42.4231 
    0.6180 	   19.9840 	    0.0000 	   44.0000 	   42.4631 
    0.8011 	   20.0025 	    0.0000 	   44.0000 	   42.5001 
    0.7248 	   20.0220 	    0.0000 	   44.0000 	   42.5391 
    0.7553 	   20.0425 	    0.0000 	   44.0000 	   42.5801 
    0.6790 	   20.0610 	    0.0000 	   44.0000 	   42.6171 
    0.5570 	   20.0795 	    0.0000 	   44.0000 	   42.6541 
    0.8316 	   20.0990 	    0.0000 	   44.0000 	   42.6931 
    0.7095 	   20.1180 	    0.0000 	   44.0000 	   42.7311 
    0.5417 	   20.1365 	    0.0000 	   44.0000 	   42.7681 
    0.6790 	   20.1560 	    0.0000 	   44.0000 	   42.8071 
    0.6638 	   20.1745 	    0.0000 	   44.0000 	   42.8441 
    0.7858 	   20.1935 	    0.0000 	   44.0000 	   42.8821 
    0.6332 	   20.2130 	    0.0000 	   44.0000 	   42.9211 
    0.6485 	   20.2315 	    0.0000 	   44.0000 	   42.9581 
    0.6943 	   20.2505 	    0.0000 	   44.0000 	   42.9961 
    0.6943 	   20.2680 	    0.0000 	   44.0000 	   43.0311 
    0.8011 	   20.2865 	    0.0000 	   44.0000 	   43.0681 
    0.6790 	   20.3055 	    0.0000 	   44.0000 	   43.1061 
    0.7706 	   20.3265 	    0.0000 	   44.0000 	   43.1481 
    0.7401 	   20.3450 	    0.0000 	   44.0000 	   43.1852 
    0.6485 	   20.3640 	    0.0000 	   44.0000 	   43.2222 
    0.6485 	   20.3830 	    0.0000 	   44.0000 	   43.2612 
    0.6790 	   20.4020 	    0.0000 	   44.0000 	   43.2992 
    0.6638 	   20.4210 	    0.0000 	   44.0000 	   43.3372 
    0.7248 	   20.4405 	    0.0000 	   44.0000 	   43.3762 
    0.6943 	   20.4600 	    0.0000 	   44.0000 	   43.4152 
    0.8621 	   20.4785 	    0.0000 	   44.0000 	   43.4522 
    0.8011 	   20.4980 	    0.0000 	   44.0000 	   43.4912 
    0.8316 	   20.5170 	    0.0000 	   44.0000 	   43.5292 
    0.7553 	   20.5375 	    0.0000 	   44.0000 	   43.5702 
    0.6027 	   20.5575 	    0.0000 	   44.0000 	   43.6102 
    0.7553 	   20.5815 	    0.0000 	   44.0000 	   43.6582 
    0.6943 	   20.6020 	    0.0000 	   44.0000 	   43.6992 
    0.8164 	   20.6210 	    0.0000 	   44.0000 	   43.7372 
    0.7095 	   20.6400 	    0.0000 	   44.0000 	   43.7752 
    0.7553 	   20.6595 	    0.0000 	   44.0000 	   43.8142 
    0.6485 	   20.6790 	    0.0000 	   44.0000 	   43.8532 
    0.8621 	   20.6975 	    0.0000 	   44.0000 	   43.8902 
    0.6943 	   20.7165 	    0.0000 	   44.0000 	   43.9282 
    0.7706 	   20.7350 	    0.0000 	   44.0000 	   43.9652 
    0.6332 	   20.7535 	    0.0000 	   44.0000 	   44.0022 
    0.7248 	   20.7725 	    0.0000 	   44.0000 	   44.0402 
    0.7858 	   20.7925 	    0.0000 	   44.0000 	   44.0802 
    0.9384 	   20.8115 	    0.0000 	   44.0000 	   44.1182 
    0.7553 	   20.8310 	    0.0000 	   44.0000 	   44.1572 
    0.7095 	   20.8495 	    0.0000 	   44.0000 	   44.1942 
    0.7706 	   20.8695 	    0.0000 	   44.0000 	   44.2342 
    0.8164 	   20.8885 	    0.0000 	   44.0000 	   44.2722 
    0.9384 	   20.9085 	    0.0000 	   44.0000 	   44.3122 
    0.7706 	   20.9270 	    0.0000 	   44.0000 	   44.3492 
    0.6943 	   20.9455 	    0.0000 	   44.0000 	   44.3862 
    0.7248 	   20.9630 	    0.0000 	   44.0000 	   44.4212 
    0.8011 	   20.9800 	    0.0000 	   44.0000 	   44.4552 
    0.9232 	   20.9965 	    0.0000 	   44.0000 	   44.4882 
    0.7401 	   21.0140 	    0.0000 	   44.0000 	   44.5232 
    0.4959 	   21.0325 	    0.0000 	   44.0000 	   44.5602 
    0.8164 	   21.0525 	    0.0000 	   44.0000 	   44.6002 
    0.7095 	   21.0710 	    0.0000 	   44.0000 	   44.6372 
    0.6943 	   21.0895 	    0.0000 	   44.0000 	   44.6742 
    0.7858 	   21.1095 	    0.0000 	   44.0000 	   44.7142 
    0.4196 	   21.1285 	    0.0000 	   44.0000 	   44.7522 
    0.8774 	   21.1475 	    0.0000 	   44.0000 	   44.7902 
    0.8316 	   21.1670 	    0.0000 	   44.0000 	   44.8292 
    0.6485 	   21.1855 	    0.0000 	   44.0000 	   44.8662 
    0.6027 	   21.2055 	    0.0000 	   44.0000 	   44.9062 
    0.7095 	   21.2240 	    0.0000 	   44.0000 	   44.9433 
    0.5875 	   21.2425 	    0.0000 	   44.0000 	   44.9803 
    0.4807 	   21.2610 	    0.0000 	   44.0000 	   45.0173 
    0.6790 	   21.2790 	    0.0000 	   44.0000 	   45.0533 
    0.8621 	   21.2975 	    0.0000 	   44.0000 	   45.0903 
    0.8316 	   21.3175 	    0.0000 	   44.0000 	   45.1303 
    0.8011 	   21.3355 	    0.0000 	   44.0000 	   45.1663 
    0.8621 	   21.3545 	    0.0000 	   44.0000 	   45.2043 
    0.7858 	   21.3745 	    0.0000 	   44.0000 	   45.2443 
    0.7706 	   21.3935 	    0.0000 	   44.0000 	   45.2823 
    0.7095 	   21.4130 	    0.0000 	   44.0000 	   45.3213 
    0.5264 	   21.4320 	    0.0000 	   44.0000 	   45.3593 
    0.7095 	   21.4505 	    0.0000 	   44.0000 	   45.3963 
    0.6485 	   21.4700 	    0.0000 	   44.0000 	   45.4353 
    0.5570 	   21.4885 	    0.0000 	   44.0000 	   45.4723 
    0.7248 	   21.5070 	    0.0000 	   44.0000 	   45.5093 
    0.4044 	   21.5270 	    0.0000 	   44.0000 	   45.5493 
    0.7095 	   21.5485 	    0.0000 	   44.0000 	   45.5923 
    0.7706 	   21.5675 	    0.0000 	   44.0000 	   45.6303 
    0.7401 	   21.5865 	    0.0000 	   44.0000 	   45.6683 
    0.7858 	   21.6065 	    0.0000 	   44.0000 	   45.7083 
    0.7553 	   21.6265 	    0.0000 	   44.0000 	   45.7483 
    0.3586 	   21.6465 	    0.0000 	   44.0000 	   45.7883 
    0.7706 	   21.6650 	    0.0000 	   44.0000 	   45.8253 
    0.8469 	   21.6855 	    0.0000 	   44.0000 	   45.8663 
    0.8011 	   21.7055 	    0.0000 	   44.0000 	   45.9063 
    0.7401 	   21.7245 	    0.0000 	   44.0000 	   45.9443 
    0.7553 	   21.7435 	    0.0000 	   44.0000 	   45.9823 
    0.5570 	   21.7620 	    0.0000 	   44.0000 	   46.0193 
    0.7553 	   21.7810 	    0.0000 	   44.0000 	   46.0573 
    0.7858 	   21.8000 	    0.0000 	   44.0000 	   46.0953 
    0.6332 	   21.8190 	    0.0000 	   44.0000 	   46.1333 
    0.6638 	   21.8385 	    0.0000 	   44.0000 	   46.1723 
    0.8164 	   21.8580 	    0.0000 	   44.0000 	   46.2113 
    0.5570 	   21.8770 	    0.0000 	   44.0000 	   46.2493 
    0.8621 	   21.8950 	    0.0000 	   44.0000 	   46.2853 
    0.7553 	   21.9160 	    0.0000 	   44.0000 	   46.3273 
    0.6485 	   21.9350 	    0.0000 	   44.0000 	   46.3653 
    0.7553 	   21.9540 	    0.0000 	   44.0000 	   46.4033 
    0.5570 	   21.9735 	    0.0000 	   44.0000 	   46.4413 
    0.7401 	   21.9930 	    0.0000 	   44.0000 	   46.4813 
    0.6943 	   22.0125 	    0.0000 	   44.0000 	   46.5203 
    0.6943 	   22.0320 	    0.0000 	   44.0000 	   46.5593 
    0.4807 	   22.0530 	    0.0000 	   44.0000 	   46.6013 
    0.7553 	   22.0710 	    0.0000 	   44.0000 	   46.6373 
    0.7248 	   22.0900 	    0.0000 	   44.0000 	   46.6754 
    0.6790 	   22.1080 	    0.0000 	   44.0000 	   46.7114 
    0.7248 	   22.1280 	    0.0000 	   44.0000 	   46.7514 
    0.5875 	   22.1475 	    0.0000 	   44.0000 	   46.7904 
    0.7401 	   22.1675 	    0.0000 	   44.0000 	   46.8304 
    0.8164 	   22.1865 	    0.0000 	   44.0000 	   46.8684 
    0.8621 	   22.2060 	    0.0000 	   44.0000 	   46.9074 
    0.6790 	   22.2265 	    0.0000 	   44.0000 	   46.9484 
    0.8316 	   22.2455 	    0.0000 	   44.0000 	   46.9864 
    0.7401 	   22.2640 	    0.0000 	   44.0000 	   47.0234 
    0.7248 	   22.2830 	    0.0000 	   44.0000 	   47.0614 
    0.7401 	   22.3020 	    0.0000 	   44.0000 	   47.0994 
    0.7553 	   22.3215 	    0.0000 	   44.0000 	   47.1384 
    0.5417 	   22.3415 	    0.0000 	   44.0000 	   47.1784 
    0.7553 	   22.3600 	    0.0000 	   44.0000 	   47.2154 
    0.7095 	   22.3795 	    0.0000 	   44.0000 	   47.2544 
    0.8316 	   22.3980 	    0.0000 	   44.0000 	   47.2914 
    0.6638 	   22.4170 	    0.0000 	   44.0000 	   47.3294 
    0.8774 	   22.4365 	    0.0000 	   44.0000 	   47.3684 
    0.5112 	   22.4550 	    0.0000 	   44.0000 	   47.4054 
    1.0452 	   22.4740 	    0.0000 	   44.0000 	   47.4434 
    0.6638 	   22.4935 	    0.0000 	   44.0000 	   47.4824 
    0.8774 	   22.5125 	    0.0000 	   44.0000 	   47.5204 
    0.8164 	   22.5315 	    0.0000 	   44.0000 	   47.5584 
    0.8469 	   22.5530 	    0.0000 	   44.0000 	   47.6014 
    0.6485 	   22.5715 	    0.0000 	   44.0000 	   47.6384 
    0.7858 	   22.5900 	    0.0000 	   44.0000 	   47.6754 
    0.6027 	   22.6090 	    0.0000 	   44.0000 	   47.7134 
    0.4349 	   22.6285 	    0.0000 	   44.0000 	   47.7524 
    0.7858 	   22.6490 	    0.0000 	   44.0000 	   47.7934 
    0.6485 	   22.6675 	    0.0000 	   44.0000 	   47.8304 
    0.8011 	   22.6860 	    0.0000 	   44.0000 	   47.8674 
    0.9232 	   22.7050 	    0.0000 	   44.0000 	   47.9054 
    0.6332 	   22.7250 	    0.0000 	   44.0000 	   47.9454 
    0.7401 	   22.7430 	    0.0000 	   44.0000 	   47.9814 
    0.8164 	   22.7605 	    0.0000 	   44.0000 	   48.0164 
    0.7553 	   22.7785 	    0.0000 	   44.0000 	   48.0524 
    0.8469 	   22.7985 	    0.0000 	   44.0000 	   48.0924 
    0.8316 	   22.8180 	    0.0000 	   44.0000 	   48.1314 
    0.7858 	   22.8370 	    0.0000 	   44.0000 	   48.1694 
    0.7858 	   22.8560 	    0.0000 	   44.0000 	   48.2074 
    0.8469 	   22.8745 	    0.0000 	   44.0000 	   48.2444 
    0.8316 	   22.8945 	    0.0000 	   44.0000 	   48.2844 
    0.6790 	   22.9130 	    0.0000 	   44.0000 	   48.3214 
    0.7401 	   22.9330 	    0.0000 	   44.0000 	   48.3614 
    0.6790 	   22.9515 	    0.0000 	   44.0000 	   48.3984 
    0.6943 	   22.9730 	    0.0000 	   44.0000 	   48.4405 
    0.8621 	   22.9920 	    0.0000 	   44.0000 	   48.4795 
    0.7401 	   23.0115 	    0.0000 	   44.0000 	   48.5185 
    0.7553 	   23.0310 	    0.0000 	   44.0000 	   48.5575 
    0.8316 	   23.0525 	    0.0000 	   44.0000 	   48.6005 
    0.8774 	   23.0710 	    0.0000 	   44.0000 	   48.6375 
    0.5875 	   23.0915 	    0.0000 	   44.0000 	   48.6785 
    0.7706 	   23.1110 	    0.0000 	   44.0000 	   48.7175 
    0.6638 	   23.1300 	    0.0000 	   44.0000 	   48.7555 
    0.8011 	   23.1490 	    0.0000 	   44.0000 	   48.7935 
    0.7095 	   23.1675 	    0.0000 	   44.0000 	   48.8305 
    0.7858 	   23.1870 	    0.0000 	   44.0000 	   48.8695 
    0.6485 	   23.2065 	    0.0000 	   44.0000 	   48.9085 
    0.9232 	   23.2260 	    0.0000 	   44.0000 	   48.9475 
    0.7858 	   23.2455 	    0.0000 	   44.0000 	   48.9855 
    0.6943 	   23.2640 	    0.0000 	   44.0000 	   49.0235 
    0.8011 	   23.2830 	    0.0000 	   44.0000 	   49.0615 
    0.8774 	   23.3030 	    0.0000 	   44.0000 	   49.1015 
    0.6638 	   23.3220 	    0.0000 	   44.0000 	   49.1395 
    0.7553 	   23.3400 	    0.0000 	   44.0000 	   49.1755 
    0.7401 	   23.3595 	    0.0000 	   44.0000 	   49.2145 
    0.7706 	   23.3790 	    0.0000 	   44.0000 	   49.2535 
    0.9232 	   23.3985 	    0.0000 	   44.0000 	   49.2925 
    0.7401 	   23.4175 	    0.0000 	   44.0000 	   49.3305 
    0.7248 	   23.4365 	    0.0000 	   44.0000 	   49.3685 
    0.6943 	   23.4550 	    0.0000 	   44.0000 	   49.4045 
    0.7095 	   23.4720 	    0.0000 	   44.0000 	   49.4395 
    0.7095 	   23.4900 	    0.0000 	   44.0000 	   49.4755 
    0.6638 	   23.5095 	    0.0000 	   44.0000 	   49.5145 
    0.7858 	   23.5275 	    0.0000 	   44.0000 	   49.5505 
    0.6638 	   23.5480 	    0.0000 	   44.0000 	   49.5915 
    0.7858 	   23.5660 	    0.0000 	   44.0000 	   49.6275 
    0.7706 	   23.5865 	    0.0000 	   44.0000 	   49.6685 
    0.9079 	   23.6055 	    0.0000 	   44.0000 	   49.7065 
    0.4349 	   23.6235 	    0.0000 	   44.0000 	   49.7425 
    0.7248 	   23.6410 	    0.0000 	   44.0000 	   49.7775 
    0.7248 	   23.6600 	    0.0000 	   44.0000 	   49.8155 
    0.6790 	   23.6785 	    0.0000 	   44.0000 	   49.8525 
    0.9079 	   23.6985 	    0.0000 	   44.0000 	   49.8925 
    0.9995 	   23.7180 	    0.0000 	   44.0000 	   49.9315 
    0.8316 	   23.7380 	    0.0000 	   44.0000 	   49.9715 
    0.9232 	   23.7565 	    0.0000 	   44.0000 	   50.0085 
    0.7706 	   23.7740 	    0.0000 	   44.0000 	   50.0435 
    0.8011 	   23.7920 	    0.0000 	   44.0000 	   50.0795 
    0.8316 	   23.8095 	    0.0000 	   44.0000 	   50.1145 
    0.9384 	   23.8275 	    0.0000 	   44.0000 	   50.1506 
    0.7706 	   23.8445 	    0.0000 	   44.0000 	   50.1846 
    0.7706 	   23.8625 	    0.0000 	   44.0000 	   50.2206 
    0.7553 	   23.8800 	    0.0000 	   44.0000 	   50.2556 
    0.6790 	   23.8975 	    0.0000 	   44.0000 	   50.2906 
    0.6943 	   23.9150 	    0.0000 	   44.0000 	   50.3256 
    0.6180 	   23.9315 	    0.0000 	   44.0000 	   50.3586 
    0.7706 	   23.9500 	    0.0000 	   44.0000 	   50.3956 
    0.6638 	   23.9695 	    0.0000 	   44.0000 	   50.4346 
    0.6485 	   23.9890 	    0.0000 	   44.0000 	   50.4736 
    0.7553 	   24.0080 	    0.0000 	   44.0000 	   50.5116 
    0.8621 	   24.0275 	    0.0000 	   44.0000 	   50.5506 
    0.8621 	   24.0495 	    0.0000 	   44.0000 	   50.5946 
    0.7553 	   24.0690 	    0.0000 	   44.0000 	   50.6336 
    0.7553 	   24.0880 	    0.0000 	   44.0000 	   50.6716 
    0.7095 	   24.1075 	    0.0000 	   44.0000 	   50.7106 
    0.7553 	   24.1270 	    0.0000 	   44.0000 	   50.7496 
    0.7706 	   24.1465 	    0.0000 	   44.0000 	   50.7886 
    0.6943 	   24.1665 	    0.0000 	   44.0000 	   50.8286 
    0.8011 	   24.1880 	    0.0000 	   44.0000 	   50.8716 
    0.6332 	   24.2085 	    0.0000 	   44.0000 	   50.9126 
    0.8316 	   24.2280 	    0.0000 	   44.0000 	   50.9516 
    0.7706 	   24.2475 	    0.0000 	   44.0000 	   50.9906 
    0.6790 	   24.2670 	    0.0000 	   44.0000 	   51.0296 
    0.7858 	   24.2860 	    0.0000 	   44.0000 	   51.0676 
    0.8621 	   24.3050 	    0.0000 	   44.0000 	   51.1056 
    0.7095 	   24.3225 	    0.0000 	   44.0000 	   51.1406 
    0.6790 	   24.3400 	    0.0000 	   44.0000 	   51.1756 
    0.7858 	   24.3570 	    0.0000 	   44.0000 	   51.2096 
    0.7401 	   24.3745 	    0.0000 	   44.0000 	   51.2446 
    0.6638 	   24.3920 	    0.0000 	   44.0000 	   51.2796 
    0.7553 	   24.4095 	    0.0000 	   44.0000 	   51.3146 
    0.7401 	   24.4265 	    0.0000 	   44.0000 	   51.3486 
    0.8164 	   24.4455 	    0.0000 	   44.0000 	   51.3866 
    0.8164 	   24.4655 	    0.0000 	   44.0000 	   51.4266 
    0.7401 	   24.4855 	    0.0000 	   44.0000 	   51.4666 
    0.9384 	   24.5045 	    0.0000 	   44.0000 	   51.5046 
    0.7706 	   24.5245 	    0.0000 	   44.0000 	   51.5446 
    0.7553 	   24.5465 	    0.0000 	   44.0000 	   51.5876 
    0.8164 	   24.5655 	    0.0000 	   44.0000 	   51.6266 
    0.6943 	   24.5855 	    0.0000 	   44.0000 	   51.6666 
    0.7095 	   24.6050 	    0.0000 	   44.0000 	   51.7056 
    0.6790 	   24.6250 	    0.0000 	   44.0000 	   51.7456 
    0.8316 	   24.6440 	    0.0000 	   44.0000 	   51.7836 
    0.8927 	   24.6630 	    0.0000 	   44.0000 	   51.8216 
    0.7095 	   24.6825 	    0.0000 	   44.0000 	   51.8606 
    0.7401 	   24.7025 	    0.0000 	   44.0000 	   51.9007 
    0.7248 	   24.7225 	    0.0000 	   44.0000 	   51.9407 
    0.6943 	   24.7420 	    0.0000 	   44.0000 	   51.9797 
    0.7248 	   24.7610 	    0.0000 	   44.0000 	   52.0177 
    0.7706 	   24.7805 	    0.0000 	   44.0000 	   52.0567 
    0.4959 	   24.7995 	    0.0000 	   44.0000 	   52.0947 
    0.7553 	   24.8190 	    0.0000 	   44.0000 	   52.1337 
    0.7706 	   24.8385 	    0.0000 	   44.0000 	   52.1727 
    0.8011 	   24.8580 	    0.0000 	   44.0000 	   52.2117 
    0.7706 	   24.8770 	    0.0000 	   44.0000 	   52.2497 
    0.8621 	   24.8970 	    0.0000 	   44.0000 	   52.2897 
    0.8164 	   24.9160 	    0.0000 	   44.0000 	   52.3277 
    0.8774 	   24.9365 	    0.0000 	   44.0000 	   52.3687 
    0.7706 	   24.9560 	    0.0000 	   44.0000 	   52.4077 
    0.8621 	   24.9755 	    0.0000 	   44.0000 	   52.4467 
    0.7095 	   24.9950 	    0.0000 	   44.0000 	   52.4857 
    0.8927 	   25.0140 	    0.0000 	   44.0000 	   52.5237 
    0.7401 	   25.0330 	    0.0000 	   44.0000 	   52.5617 
    0.9384 	   25.0555 	    0.0000 	   44.0000 	   52.6067 
    0.7401 	   25.0755 	    0.0000 	   44.0000 	   52.6467 
    0.8316 	   25.0970 	    0.0000 	   44.0000 	   52.6897 
    0.7401 	   25.1165 	    0.0000 	   44.0000 	   52.7287 
    0.8774 	   25.1350 	    0.0000 	   44.0000 	   52.7657 
    0.8011 	   25.1550 	    0.0000 	   44.0000 	   52.8057 
    0.7858 	   25.1740 	    0.0000 	   44.0000 	   52.8437 
    0.8011 	   25.1940 	    0.0000 	   44.0000 	   52.8837 
    0.7248 	   25.2135 	    0.0000 	   44.0000 	   52.9227 
    0.9079 	   25.2340 	    0.0000 	   44.0000 	   52.9637 
    0.7095 	   25.2535 	    0.0000 	   44.0000 	   53.0027 
    0.8164 	   25.2735 	    0.0000 	   44.0000 	   53.0427 
    0.7401 	   25.2935 	    0.0000 	   44.0000 	   53.0827 
    0.7858 	   25.3130 	    0.0000 	   44.0000 	   53.1217 
    0.9079 	   25.3335 	    0.0000 	   44.0000 	   53.1627 
    0.7706 	   25.3530 	    0.0000 	   44.0000 	   53.2017 
    0.8011 	   25.3720 	    0.0000 	   44.0000 	   53.2397 
    0.9689 	   25.3915 	    0.0000 	   44.0000 	   53.2787 
    0.7553 	   25.4115 	    0.0000 	   44.0000 	   53.3187 
    0.8469 	   25.4310 	    0.0000 	   44.0000 	   53.3577 
    0.5112 	   25.4500 	    0.0000 	   44.0000 	   53.3957 
    0.8469 	   25.4695 	    0.0000 	   44.0000 	   53.4347 
    0.7858 	   25.4890 	    0.0000 	   44.0000 	   53.4737 
    0.6790 	   25.5090 	    0.0000 	   44.0000 	   53.5137 
    0.8011 	   25.5295 	    0.0000 	   44.0000 	   53.5547 
    0.8316 	   25.5515 	    0.0000 	   44.0000 	   53.5987 
    0.8164 	   25.5695 	    0.0000 	   44.0000 	   53.6347 
    0.8927 	   25.5890 	    0.0000 	   44.0000 	   53.6738 
    0.8774 	   25.6065 	    0.0000 	   44.0000 	   53.7088 
    0.8774 	   25.6240 	    0.0000 	   44.0000 	   53.7438 
    0.7706 	   25.6440 	    0.0000 	   44.0000 	   53.7838 
    0.7401 	   25.6645 	    0.0000 	   44.0000 	   53.8248 
    0.8469 	   25.6840 	    0.0000 	   44.0000 	   53.8638 
    0.7248 	   25.7040 	    0.0000 	   44.0000 	   53.9038 
    0.7401 	   25.7230 	    0.0000 	   44.0000 	   53.9418 
    0.8011 	   25.7405 	    0.0000 	   44.0000 	   53.9768 
    0.8316 	   25.7580 	    0.0000 	   44.0000 	   54.0118 
    0.6485 	   25.7765 	    0.0000 	   44.0000 	   54.0488 
    0.7553 	   25.7935 	    0.0000 	   44.0000 	   54.0828 
    0.9232 	   25.8130 	    0.0000 	   44.0000 	   54.1218 
    1.0300 	   25.8315 	    0.0000 	   44.0000 	   54.1588 
    0.7706 	   25.8490 	    0.0000 	   44.0000 	   54.1938 
    0.7095 	   25.8680 	    0.0000 	   44.0000 	   54.2318 
    0.7248 	   25.8865 	    0.0000 	   44.0000 	   54.2688 
    0.7401 	   25.9040 	    0.0000 	   44.0000 	   54.3038 
    0.7095 	   25.9220 	    0.0000 	   44.0000 	   54.3398 
    0.7858 	   25.9400 	    0.0000 	   44.0000 	   54.3758 
    1.0300 	   25.9575 	    0.0000 	   44.0000 	   54.4108 
    0.8927 	   25.9745 	    0.0000 	   44.0000 	   54.4448 
    0.8621 	   25.9925 	    0.0000 	   44.0000 	   54.4808 
    0.7553 	   26.0105 	    0.0000 	   44.0000 	   54.5168 
    0.7706 	   26.0300 	    0.0000 	   44.0000 	   54.5558 
    0.8316 	   26.0520 	    0.0000 	   44.0000 	   54.5998 
    0.8621 	   26.0705 	    0.0000 	   44.0000 	   54.6368 
    0.6790 	   26.0905 	    0.0000 	   44.0000 	   54.6768 
    0.7401 	   26.1100 	    0.0000 	   44.0000 	   54.7158 
    0.6027 	   26.1310 	    0.0000 	   44.0000 	   54.7578 
    0.7706 	   26.1505 	    0.0000 	   44.0000 	   54.7968 
    0.4959 	   26.1700 	    0.0000 	   44.0000 	   54.8358 
    0.9842 	   26.1895 	    0.0000 	   44.0000 	   54.8748 
    0.5875 	   26.2100 	    0.0000 	   44.0000 	   54.9158 
    0.8927 	   26.2300 	    0.0000 	   44.0000 	   54.9558 
    0.7858 	   26.2500 	    0.0000 	   44.0000 	   54.9958 
    0.7553 	   26.2695 	    0.0000 	   44.0000 	   55.0348 
    0.8011 	   26.2895 	    0.0000 	   44.0000 	   55.0748 
    0.8316 	   26.3085 	    0.0000 	   44.0000 	   55.1128 
    0.8774 	   26.3290 	    0.0000 	   44.0000 	   55.1538 
    0.7553 	   26.3485 	    0.0000 	   44.0000 	   55.1928 
    0.7553 	   26.3675 	    0.0000 	   44.0000 	   55.2308 
    0.7706 	   26.3870 	    0.0000 	   44.0000 	   55.2698 
    0.8774 	   26.4075 	    0.0000 	   44.0000 	   55.3108 
    0.6790 	   26.4275 	    0.0000 	   44.0000 	   55.3508 
    0.8011 	   26.4465 	    0.0000 	   44.0000 	   55.3888 
    0.7401 	   26.4660 	    0.0000 	   44.0000 	   55.4278 
    0.9079 	   26.4860 	    0.0000 	   44.0000 	   55.4679 
    0.9384 	   26.5050 	    0.0000 	   44.0000 	   55.5059 
    0.4959 	   26.5250 	    0.0000 	   44.0000 	   55.5459 
    0.6943 	   26.5475 	    0.0000 	   44.0000 	   55.5909 
    0.8011 	   26.5670 	    0.0000 	   44.0000 	   55.6299 
    0.8621 	   26.5880 	    0.0000 	   44.0000 	   55.6719 
    0.7553 	   26.6085 	    0.0000 	   44.0000 	   55.7129 
    0.8011 	   26.6280 	    0.0000 	   44.0000 	   55.7519 
    0.7858 	   26.6475 	    0.0000 	   44.0000 	   55.7909 
    0.8469 	   26.6685 	    0.0000 	   44.0000 	   55.8329 
    0.7095 	   26.6875 	    0.0000 	   44.0000 	   55.8709 
    0.8621 	   26.7070 	    0.0000 	   44.0000 	   55.9099 
    0.6027 	   26.7275 	    0.0000 	   44.0000 	   55.9509 
    0.8011 	   26.7475 	    0.0000 	   44.0000 	   55.9909 
    0.8927 	   26.7680 	    0.0000 	   44.0000 	   56.0319 
    0.8316 	   26.7900 	    0.0000 	   44.0000 	   56.0759 
    0.8164 	   26.8095 	    0.0000 	   44.0000 	   56.1149 
    0.8621 	   26.8305 	    0.0000 	   44.0000 	   56.1569 
    0.8621 	   26.8500 	    0.0000 	   44.0000 	   56.1959 
    0.7248 	   26.8700 	    0.0000 	   44.0000 	   56.2359 
    0.7706 	   26.8895 	    0.0000 	   44.0000 	   56.2749 
    0.8469 	   26.9095 	    0.0000 	   44.0000 	   56.3149 
    0.8774 	   26.9300 	    0.0000 	   44.0000 	   56.3559 
    0.6485 	   26.9490 	    0.0000 	   44.0000 	   56.3939 
    0.8469 	   26.9680 	    0.0000 	   44.0000 	   56.4319 
    0.8927 	   26.9890 	    0.0000 	   44.0000 	   56.4739 
    0.6790 	   27.0095 	    0.0000 	   44.0000 	   56.5149 
    0.7706 	   27.0295 	    0.0000 	   44.0000 	   56.5549 
    0.8621 	   27.0515 	    0.0000 	   44.0000 	   56.5989 
    0.4196 	   27.0705 	    0.0000 	   44.0000 	   56.6369 
    0.8011 	   27.0900 	    0.0000 	   44.0000 	   56.6759 
    0.8316 	   27.1100 	    0.0000 	   44.0000 	   56.7159 
    0.8164 	   27.1300 	    0.0000 	   44.0000 	   56.7559 
    0.9842 	   27.1495 	    0.0000 	   44.0000 	   56.7949 
    0.8621 	   27.1690 	    0.0000 	   44.0000 	   56.8339 
    0.7095 	   27.1890 	    0.0000 	   44.0000 	   56.8739 
    0.8316 	   27.2085 	    0.0000 	   44.0000 	   56.9129 
    0.8469 	   27.2285 	    0.0000 	   44.0000 	   56.9529 
    0.7095 	   27.2480 	    0.0000 	   44.0000 	   56.9919 
    0.6943 	   27.2685 	    0.0000 	   44.0000 	   57.0329 
    0.8621 	   27.2875 	    0.0000 	   44.0000 	   57.0709 
    0.7401 	   27.3050 	    0.0000 	   44.0000 	   57.1059 
    0.6790 	   27.3245 	    0.0000 	   44.0000 	   57.1450 
    0.8621 	   27.3455 	    0.0000 	   44.0000 	   57.1870 
    0.9232 	   27.3645 	    0.0000 	   44.0000 	   57.2250 
    0.8164 	   27.3840 	    0.0000 	   44.0000 	   57.2640 
    0.8774 	   27.4035 	    0.0000 	   44.0000 	   57.3030 
    0.8316 	   27.4225 	    0.0000 	   44.0000 	   57.3410 
    0.8621 	   27.4425 	    0.0000 	   44.0000 	   57.3810 
    0.8774 	   27.4620 	    0.0000 	   44.0000 	   57.4200 
    0.8927 	   27.4820 	    0.0000 	   44.0000 	   57.4600 
    0.9689 	   27.5020 	    0.0000 	   44.0000 	   57.5000 
    0.8621 	   27.5220 	    0.0000 	   44.0000 	   57.5400 
    0.7401 	   27.5435 	    0.0000 	   44.0000 	   57.5830 
    0.8011 	   27.5630 	    0.0000 	   44.0000 	   57.6220 
    1.0452 	   27.5825 	    0.0000 	   44.0000 	   57.6610 
    0.9384 	   27.6025 	    0.0000 	   44.0000 	   57.7010 
    0.8621 	   27.6230 	    0.0000 	   44.0000 	   57.7420 
    0.7553 	   27.6450 	    0.0000 	   44.0000 	   57.7860 
    0.8621 	   27.6645 	    0.0000 	   44.0000 	   57.8250 
    0.7401 	   27.6845 	    0.0000 	   44.0000 	   57.8650 
    0.8469 	   27.7055 	    0.0000 	   44.0000 	   57.9070 
    0.6943 	   27.7255 	    0.0000 	   44.0000 	   57.9470 
    0.8011 	   27.7455 	    0.0000 	   44.0000 	   57.9870 
    0.7095 	   27.7655 	    0.0000 	   44.0000 	   58.0270 
    0.8164 	   27.7855 	    0.0000 	   44.0000 	   58.0670 
    0.8011 	   27.8060 	    0.0000 	   44.0000 	   58.1080 
    0.7095 	   27.8255 	    0.0000 	   44.0000 	   58.1470 
    0.7858 	   27.8470 	    0.0000 	   44.0000 	   58.1890 
    0.5722 	   27.8670 	    0.0000 	   44.0000 	   58.2290 
    0.6180 	   27.8885 	    0.0000 	   44.0000 	   58.2720 
    0.8621 	   27.9090 	    0.0000 	   44.0000 	   58.3130 
    0.7553 	   27.9290 	    0.0000 	   44.0000 	   58.3530 
    0.7248 	   27.9500 	    0.0000 	   44.0000 	   58.3950 
    0.9384 	   27.9700 	    0.0000 	   44.0000 	   58.4350 
    0.7706 	   27.9900 	    0.0000 	   44.0000 	   58.4750 
    0.7553 	   28.0095 	    0.0000 	   44.0000 	   58.5140 
    0.7401 	   28.0295 	    0.0000 	   44.0000 	   58.5540 
    0.9079 	   28.0510 	    0.0000 	   44.0000 	   58.5970 
    0.8164 	   28.0720 	    0.0000 	   44.0000 	   58.6390 
    0.8774 	   28.0920 	    0.0000 	   44.0000 	   58.6790 
    0.7553 	   28.1105 	    0.0000 	   44.0000 	   58.7160 
    0.6943 	   28.1285 	    0.0000 	   44.0000 	   58.7520 
    0.8316 	   28.1490 	    0.0000 	   44.0000 	   58.7930 
    0.7706 	   28.1695 	    0.0000 	   44.0000 	   58.8340 
    0.9384 	   28.1885 	    0.0000 	   44.0000 	   58.8720 
    0.7553 	   28.2065 	    0.0000 	   44.0000 	   58.9081 
    0.8927 	   28.2240 	    0.0000 	   44.0000 	   58.9431 
    0.9079 	   28.2425 	    0.0000 	   44.0000 	   58.9801 
    0.8164 	   28.2605 	    0.0000 	   44.0000 	   59.0161 
    0.8621 	   28.2790 	    0.0000 	   44.0000 	   59.0531 
    0.8469 	   28.2975 	    0.0000 	   44.0000 	   59.0901 
    0.8621 	   28.3155 	    0.0000 	   44.0000 	   59.1261 
    0.6638 	   28.3335 	    0.0000 	   44.0000 	   59.1621 
    0.8774 	   28.3520 	    0.0000 	   44.0000 	   59.1991 
    0.8011 	   28.3700 	    0.0000 	   44.0000 	   59.2351 
    0.8164 	   28.3885 	    0.0000 	   44.0000 	   59.2721 
    0.8011 	   28.4065 	    0.0000 	   44.0000 	   59.3081 
    0.8316 	   28.4245 	    0.0000 	   44.0000 	   59.3441 
    0.7706 	   28.4445 	    0.0000 	   44.0000 	   59.3841 
    0.9689 	   28.4650 	    0.0000 	   44.0000 	   59.4251 
    0.5417 	   28.4860 	    0.0000 	   44.0000 	   59.4671 
    0.6485 	   28.5075 	    0.0000 	   44.0000 	   59.5101 
    0.7553 	   28.5275 	    0.0000 	   44.0000 	   59.5501 
    0.9079 	   28.5495 	    0.0000 	   44.0000 	   59.5941 
    0.8164 	   28.5690 	    0.0000 	   44.0000 	   59.6331 
    0.8774 	   28.5895 	    0.0000 	   44.0000 	   59.6741 
    0.7706 	   28.6095 	    0.0000 	   44.0000 	   59.7141 
    0.7553 	   28.6295 	    0.0000 	   44.0000 	   59.7541 
    0.6943 	   28.6500 	    0.0000 	   44.0000 	   59.7951 
    0.8164 	   28.6700 	    0.0000 	   44.0000 	   59.8351 
    0.8774 	   28.6905 	    0.0000 	   44.0000 	   59.8761 
    0.9232 	   28.7110 	    0.0000 	   44.0000 	   59.9171 
    0.6485 	   28.7305 	    0.0000 	   44.0000 	   59.9561 
    0.8011 	   28.7500 	    0.0000 	   44.0000 	   59.9951 
    0.7401 	   28.7725 	    0.0000 	   45.0000 	    0.0401 
    0.7706 	   28.7920 	    0.0000 	   45.0000 	    0.0791 
    0.9384 	   28.8095 	    0.0000 	   45.0000 	    0.1141 
    0.9232 	   28.8440 	    0.0000 	   45.0000 	    0.1831 
    0.7858 	   28.8690 	    0.0000 	   45.0000 	    0.2331 
    0.8316 	   28.8915 	    0.0000 	   45.0000 	    0.2781 
    0.7095 	   28.9090 	    0.0000 	   45.0000 	    0.3131 
    0.8621 	   28.9275 	    0.0000 	   45.0000 	    0.3501 
    0.8164 	   28.9470 	    0.0000 	   45.0000 	    0.3891 
    0.6943 	   28.9675 	    0.0000 	   45.0000 	    0.4301 
    0.8011 	   28.9885 	    0.0000 	   45.0000 	    0.4721 
    0.8621 	   29.0105 	    0.0000 	   45.0000 	    0.5161 
    0.7858 	   29.0310 	    0.0000 	   45.0000 	    0.5571 
    0.8774 	   29.0530 	    0.0000 	   45.0000 	    0.6011 
    0.8011 	   29.0735 	    0.0000 	   45.0000 	    0.6421 
    0.9384 	   29.0940 	    0.0000 	   45.0000 	    0.6832 
    0.8011 	   29.1145 	    0.0000 	   45.0000 	    0.7242 
    0.7858 	   29.1360 	    0.0000 	   45.0000 	    0.7672 
    0.7553 	   29.1570 	    0.0000 	   45.0000 	    0.8092 
    0.8316 	   29.1775 	    0.0000 	   45.0000 	    0.8502 
    0.8469 	   29.1975 	    0.0000 	   45.0000 	    0.8902 
    0.6180 	   29.2185 	    0.0000 	   45.0000 	    0.9322 
    0.8621 	   29.2390 	    0.0000 	   45.0000 	    0.9732 
    0.8011 	   29.2595 	    0.0000 	   45.0000 	    1.0142 
    0.8011 	   29.2800 	    0.0000 	   45.0000 	    1.0552 
    0.5570 	   29.3000 	    0.0000 	   45.0000 	    1.0952 
    0.9689 	   29.3210 	    0.0000 	   45.0000 	    1.1372 
    0.8621 	   29.3420 	    0.0000 	   45.0000 	    1.1792 
    0.8774 	   29.3640 	    0.0000 	   45.0000 	    1.2232 
    0.7553 	   29.3845 	    0.0000 	   45.0000 	    1.2642 
    0.8469 	   29.4050 	    0.0000 	   45.0000 	    1.3052 
    0.8774 	   29.4260 	    0.0000 	   45.0000 	    1.3472 
    0.7858 	   29.4450 	    0.0000 	   45.0000 	    1.3852 
    0.7401 	   29.4630 	    0.0000 	   45.0000 	    1.4212 
    0.8927 	   29.4820 	    0.0000 	   45.0000 	    1.4592 
    0.8469 	   29.5005 	    0.0000 	   45.0000 	    1.4962 
    0.8164 	   29.5190 	    0.0000 	   45.0000 	    1.5332 
    0.8316 	   29.5380 	    0.0000 	   45.0000 	    1.5712 
    0.7858 	   29.5555 	    0.0000 	   45.0000 	    1.6062 
    0.8621 	   29.5815 	    0.0000 	   45.0000 	    1.6582 
    0.8164 	   29.6015 	    0.0000 	   45.0000 	    1.6982 
    0.9232 	   29.6215 	    0.0000 	   45.0000 	    1.7382 
    0.8011 	   29.6420 	    0.0000 	   45.0000 	    1.7792 
    1.0605 	   29.6620 	    0.0000 	   45.0000 	    1.8192 
    0.7553 	   29.6815 	    0.0000 	   45.0000 	    1.8582 
    0.6638 	   29.7020 	    0.0000 	   45.0000 	    1.8992 
    0.9384 	   29.7225 	    0.0000 	   45.0000 	    1.9402 
    0.8469 	   29.7430 	    0.0000 	   45.0000 	    1.9812 
    0.8621 	   29.7625 	    0.0000 	   45.0000 	    2.0202 
    0.7706 	   29.7830 	    0.0000 	   45.0000 	    2.0612 
    0.8316 	   29.8040 	    0.0000 	   45.0000 	    2.1032 
    0.6638 	   29.8245 	    0.0000 	   45.0000 	    2.1442 
    0.7553 	   29.8450 	    0.0000 	   45.0000 	    2.1852 
    0.8164 	   29.8665 	    0.0000 	   45.0000 	    2.2282 
    0.9537 	   29.8865 	    0.0000 	   45.0000 	    2.2682 
    0.8621 	   29.9075 	    0.0000 	   45.0000 	    2.3102 
    0.8316 	   29.9275 	    0.0000 	   45.0000 	    2.3502 
    0.8621 	   29.9480 	    0.0000 	   45.0000 	    2.3912 
    0.6332 	   29.9685 	    0.0000 	   45.0000 	    2.4323 
    0.8011 	   29.9895 	    0.0000 	   45.0000 	    2.4743 
    0.8469 	   30.0100 	    0.0000 	   45.0000 	    2.5153 
    0.7553 	   30.0295 	    0.0000 	   45.0000 	    2.5543 
    0.8469 	   30.0530 	    0.0000 	   45.0000 	    2.6013 
    0.8774 	   30.0735 	    0.0000 	   45.0000 	    2.6423 
    0.9995 	   30.0930 	    0.0000 	   45.0000 	    2.6813 
    0.7248 	   30.1125 	    0.0000 	   45.0000 	    2.7203 
    0.7706 	   30.1325 	    0.0000 	   45.0000 	    2.7603 
    0.8164 	   30.1525 	    0.0000 	   45.0000 	    2.8003 
    0.7858 	   30.1725 	    0.0000 	   45.0000 	    2.8403 
    0.7706 	   30.1930 	    0.0000 	   45.0000 	    2.8813 
    0.8469 	   30.2135 	    0.0000 	   45.0000 	    2.9223 
    0.8927 	   30.2335 	    0.0000 	   45.0000 	    2.9623 
    0.8774 	   30.2535 	    0.0000 	   45.0000 	    3.0023 
    0.9079 	   30.2740 	    0.0000 	   45.0000 	    3.0433 
    0.4959 	   30.2945 	    0.0000 	   45.0000 	    3.0843 
    0.6638 	   30.3145 	    0.0000 	   45.0000 	    3.1243 
    0.8927 	   30.3350 	    0.0000 	   45.0000 	    3.1653 
    0.7858 	   30.3550 	    0.0000 	   45.0000 	    3.2053 
    0.7095 	   30.3745 	    0.0000 	   45.0000 	    3.2433 
    0.8927 	   30.3955 	    0.0000 	   45.0000 	    3.2863 
    1.0147 	   30.4170 	    0.0000 	   45.0000 	    3.3293 
    0.9232 	   30.4370 	    0.0000 	   45.0000 	    3.3693 
    0.8164 	   30.4575 	    0.0000 	   45.0000 	    3.4103 
    0.8011 	   30.4780 	    0.0000 	   45.0000 	    3.4513 
    0.8164 	   30.4985 	    0.0000 	   45.0000 	    3.4923 
    0.8316 	   30.5190 	    0.0000 	   45.0000 	    3.5333 
    0.8011 	   30.5410 	    0.0000 	   45.0000 	    3.5773 
    0.9842 	   30.5625 	    0.0000 	   45.0000 	    3.6203 
    0.9384 	   30.5830 	    0.0000 	   45.0000 	    3.6613 
    0.5417 	   30.6040 	    0.0000 	   45.0000 	    3.7033 
    0.7706 	   30.6250 	    0.0000 	   45.0000 	    3.7453 
    0.7706 	   30.6460 	    0.0000 	   45.0000 	    3.7873 
    0.6790 	   30.6660 	    0.0000 	   45.0000 	    3.8273 
    0.7248 	   30.6865 	    0.0000 	   45.0000 	    3.8683 
    0.9689 	   30.7075 	    0.0000 	   45.0000 	    3.9103 
    0.8621 	   30.7270 	    0.0000 	   45.0000 	    3.9493 
    0.8927 	   30.7480 	    0.0000 	   45.0000 	    3.9913 
    0.8011 	   30.7690 	    0.0000 	   45.0000 	    4.0333 
    0.7706 	   30.7895 	    0.0000 	   45.0000 	    4.0743 
    0.7553 	   30.8100 	    0.0000 	   45.0000 	    4.1153 
    0.7706 	   30.8305 	    0.0000 	   45.0000 	    4.1564 
    0.9537 	   30.8505 	    0.0000 	   45.0000 	    4.1964 
    1.0300 	   30.8705 	    0.0000 	   45.0000 	    4.2364 
    0.8774 	   30.8915 	    0.0000 	   45.0000 	    4.2784 
    0.8469 	   30.9130 	    0.0000 	   45.0000 	    4.3214 
    0.7401 	   30.9330 	    0.0000 	   45.0000 	    4.3614 
    0.8927 	   30.9540 	    0.0000 	   45.0000 	    4.4034 
    0.8011 	   30.9745 	    0.0000 	   45.0000 	    4.4444 
    0.6943 	   30.9960 	    0.0000 	   45.0000 	    4.4874 
    0.8164 	   31.0150 	    0.0000 	   45.0000 	    4.5254 
    0.8927 	   31.0355 	    0.0000 	   45.0000 	    4.5664 
    0.9537 	   31.0575 	    0.0000 	   45.0000 	    4.6104 
    0.8469 	   31.0780 	    0.0000 	   45.0000 	    4.6514 
    0.8469 	   31.0980 	    0.0000 	   45.0000 	    4.6914 
    0.7706 	   31.1170 	    0.0000 	   45.0000 	    4.7294 
    0.8011 	   31.1360 	    0.0000 	   45.0000 	    4.7674 
    0.6790 	   31.1565 	    0.0000 	   45.0000 	    4.8084 
    0.8927 	   31.1780 	    0.0000 	   45.0000 	    4.8514 
    0.8774 	   31.1975 	    0.0000 	   45.0000 	    4.8904 
    0.8774 	   31.2180 	    0.0000 	   45.0000 	    4.9314 
    0.8011 	   31.2390 	    0.0000 	   45.0000 	    4.9734 
    0.9384 	   31.2595 	    0.0000 	   45.0000 	    5.0144 
    0.7706 	   31.2800 	    0.0000 	   45.0000 	    5.0554 
    0.8316 	   31.3000 	    0.0000 	   45.0000 	    5.0954 
    0.8774 	   31.3180 	    0.0000 	   45.0000 	    5.1314 
    0.8927 	   31.3370 	    0.0000 	   45.0000 	    5.1694 
    0.8316 	   31.3570 	    0.0000 	   45.0000 	    5.2094 
    0.8621 	   31.3775 	    0.0000 	   45.0000 	    5.2504 
    0.8927 	   31.3975 	    0.0000 	   45.0000 	    5.2904 
    0.7706 	   31.4185 	    0.0000 	   45.0000 	    5.3324 
    0.8011 	   31.4400 	    0.0000 	   45.0000 	    5.3754 
    0.8011 	   31.4595 	    0.0000 	   45.0000 	    5.4144 
    0.7858 	   31.4800 	    0.0000 	   45.0000 	    5.4554 
    0.7401 	   31.5010 	    0.0000 	   45.0000 	    5.4974 
    0.7858 	   31.5220 	    0.0000 	   45.0000 	    5.5394 
    0.8164 	   31.5415 	    0.0000 	   45.0000 	    5.5784 
    0.8011 	   31.5625 	    0.0000 	   45.0000 	    5.6204 
    0.8316 	   31.5825 	    0.0000 	   45.0000 	    5.6604 
    0.9232 	   31.6025 	    0.0000 	   45.0000 	    5.7004 
    0.8469 	   31.6225 	    0.0000 	   45.0000 	    5.7404 
    0.8927 	   31.6435 	    0.0000 	   45.0000 	    5.7824 
    0.8164 	   31.6635 	    0.0000 	   45.0000 	    5.8224 
    0.8469 	   31.6845 	    0.0000 	   45.0000 	    5.8644 
    0.6638 	   31.7055 	    0.0000 	   45.0000 	    5.9064 
    0.8011 	   31.7265 	    0.0000 	   45.0000 	    5.9485 
    0.8927 	   31.7470 	    0.0000 	   45.0000 	    5.9895 
    0.8011 	   31.7675 	    0.0000 	   45.0000 	    6.0305 
    0.8011 	   31.7885 	    0.0000 	   45.0000 	    6.0725 
    0.8469 	   31.8090 	    0.0000 	   45.0000 	    6.1135 
    0.8316 	   31.8295 	    0.0000 	   45.0000 	    6.1545 
    0.8011 	   31.8500 	    0.0000 	   45.0000 	    6.1955 
    0.9689 	   31.8710 	    0.0000 	   45.0000 	    6.2375 
    0.8469 	   31.8915 	    0.0000 	   45.0000 	    6.2785 
    0.6485 	   31.9135 	    0.0000 	   45.0000 	    6.3225 
    0.8164 	   31.9340 	    0.0000 	   45.0000 	    6.3635 
    0.8774 	   31.9555 	    0.0000 	   45.0000 	    6.4065 
    0.9232 	   31.9765 	    0.0000 	   45.0000 	    6.4485 
    0.8011 	   31.9965 	    0.0000 	   45.0000 	    6.4885 
    0.8469 	   32.0165 	    0.0000 	   45.0000 	    6.5285 
    0.9232 	   32.0370 	    0.0000 	   45.0000 	    6.5695 
    0.7858 	   32.0600 	    0.0000 	   45.0000 	    6.6155 
    0.7858 	   32.0810 	    0.0000 	   45.0000 	    6.6575 
    0.7553 	   32.1010 	    0.0000 	   45.0000 	    6.6975 
    0.7858 	   32.1210 	    0.0000 	   45.0000 	    6.7375 
    0.8164 	   32.1425 	    0.0000 	   45.0000 	    6.7805 
    0.9842 	   32.1640 	    0.0000 	   45.0000 	    6.8235 
    0.8164 	   32.1855 	    0.0000 	   45.0000 	    6.8665 
    0.9537 	   32.2060 	    0.0000 	   45.0000 	    6.9075 
    0.7858 	   32.2275 	    0.0000 	   45.0000 	    6.9505 
    0.8316 	   32.2475 	    0.0000 	   45.0000 	    6.9905 
    0.8621 	   32.2685 	    0.0000 	   45.0000 	    7.0325 
    0.6638 	   32.2865 	    0.0000 	   45.0000 	    7.0685 
    0.9384 	   32.3050 	    0.0000 	   45.0000 	    7.1055 
    0.6638 	   32.3245 	    0.0000 	   45.0000 	    7.1445 
    0.7401 	   32.3430 	    0.0000 	   45.0000 	    7.1815 
    0.6790 	   32.3620 	    0.0000 	   45.0000 	    7.2195 
    0.8774 	   32.3835 	    0.0000 	   45.0000 	    7.2625 
    0.8316 	   32.4040 	    0.0000 	   45.0000 	    7.3035 
    0.7706 	   32.4255 	    0.0000 	   45.0000 	    7.3465 
    0.8469 	   32.4450 	    0.0000 	   45.0000 	    7.3855 
    0.9079 	   32.4665 	    0.0000 	   45.0000 	    7.4285 
    0.7858 	   32.4875 	    0.0000 	   45.0000 	    7.4705 
    0.8164 	   32.5080 	    0.0000 	   45.0000 	    7.5115 
    0.7553 	   32.5285 	    0.0000 	   45.0000 	    7.5525 
    0.7401 	   32.5500 	    0.0000 	   45.0000 	    7.5955 
    0.9079 	   32.5700 	    0.0000 	   45.0000 	    7.6355 
    0.8621 	   32.5925 	    0.0000 	   45.0000 	    7.6806 
    0.7706 	   32.6130 	    0.0000 	   45.0000 	    7.7216 
    0.9232 	   32.6350 	    0.0000 	   45.0000 	    7.7656 
    1.0300 	   32.6555 	    0.0000 	   45.0000 	    7.8066 
    0.8164 	   32.6755 	    0.0000 	   45.0000 	    7.8466 
    0.7858 	   32.6965 	    0.0000 	   45.0000 	    7.8886 
    0.7248 	   32.7185 	    0.0000 	   45.0000 	    7.9316 
    0.8469 	   32.7390 	    0.0000 	   45.0000 	    7.9736 
    1.0452 	   32.7615 	    0.0000 	   45.0000 	    8.0186 
    0.7553 	   32.7800 	    0.0000 	   45.0000 	    8.0556 
    0.8774 	   32.8010 	    0.0000 	   45.0000 	    8.0976 
    0.7858 	   32.8215 	    0.0000 	   45.0000 	    8.1386 
    0.8164 	   32.8420 	    0.0000 	   45.0000 	    8.1796 
    0.7553 	   32.8625 	    0.0000 	   45.0000 	    8.2206 
    0.6638 	   32.8830 	    0.0000 	   45.0000 	    8.2616 
    0.5875 	   32.9040 	    0.0000 	   45.0000 	    8.3036 
    0.7553 	   32.9260 	    0.0000 	   45.0000 	    8.3476 
    1.0147 	   32.9475 	    0.0000 	   45.0000 	    8.3906 
    0.8469 	   32.9670 	    0.0000 	   45.0000 	    8.4296 
    0.9079 	   32.9880 	    0.0000 	   45.0000 	    8.4716 
    0.7706 	   33.0090 	    0.0000 	   45.0000 	    8.5136 
    0.9079 	   33.0295 	    0.0000 	   45.0000 	    8.5546 
    0.7858 	   33.0520 	    0.0000 	   45.0000 	    8.5996 
    0.7706 	   33.0735 	    0.0000 	   45.0000 	    8.6426 
    0.8164 	   33.0940 	    0.0000 	   45.0000 	    8.6836 
    0.6180 	   33.1150 	    0.0000 	   45.0000 	    8.7256 
    0.9232 	   33.1360 	    0.0000 	   45.0000 	    8.7676 
    0.8164 	   33.1570 	    0.0000 	   45.0000 	    8.8096 
    0.9537 	   33.1775 	    0.0000 	   45.0000 	    8.8506 
    0.8316 	   33.1980 	    0.0000 	   45.0000 	    8.8916 
    0.8316 	   33.2185 	    0.0000 	   45.0000 	    8.9326 
    0.8469 	   33.2400 	    0.0000 	   45.0000 	    8.9756 
    0.8164 	   33.2610 	    0.0000 	   45.0000 	    9.0176 
    0.9842 	   33.2815 	    0.0000 	   45.0000 	    9.0586 
    0.4349 	   33.3025 	    0.0000 	   45.0000 	    9.1006 
    0.7553 	   33.3225 	    0.0000 	   45.0000 	    9.1406 
    0.7553 	   33.3430 	    0.0000 	   45.0000 	    9.1816 
    0.9232 	   33.3645 	    0.0000 	   45.0000 	    9.2246 
    0.8469 	   33.3855 	    0.0000 	   45.0000 	    9.2666 
    0.9232 	   33.4065 	    0.0000 	   45.0000 	    9.3086 
    1.0300 	   33.4285 	    0.0000 	   45.0000 	    9.3526 
    0.9232 	   33.4495 	    0.0000 	   45.0000 	    9.3946 
    0.9079 	   33.4705 	    0.0000 	   45.0000 	    9.4367 
    0.8621 	   33.4920 	    0.0000 	   45.0000 	    9.4797 
    0.9842 	   33.5120 	    0.0000 	   45.0000 	    9.5197 
    0.8469 	   33.5330 	    0.0000 	   45.0000 	    9.5617 
    1.0300 	   33.5545 	    0.0000 	   45.0000 	    9.6047 
    0.8011 	   33.5750 	    0.0000 	   45.0000 	    9.6457 
    0.8621 	   33.5960 	    0.0000 	   45.0000 	    9.6877 
    0.7401 	   33.6170 	    0.0000 	   45.0000 	    9.7297 
    0.8164 	   33.6385 	    0.0000 	   45.0000 	    9.7727 
    0.8774 	   33.6605 	    0.0000 	   45.0000 	    9.8167 
    0.8774 	   33.6815 	    0.0000 	   45.0000 	    9.8587 
    0.8621 	   33.7045 	    0.0000 	   45.0000 	    9.9047 
    0.6943 	   33.7255 	    0.0000 	   45.0000 	    9.9467 
    0.8316 	   33.7470 	    0.0000 	   45.0000 	    9.9897 
    0.6180 	   33.7680 	    0.0000 	   45.0000 	   10.0317 
    0.9079 	   33.7895 	    0.0000 	   45.0000 	   10.0747 
    0.8011 	   33.8105 	    0.0000 	   45.0000 	   10.1167 
    0.9384 	   33.8310 	    0.0000 	   45.0000 	   10.1577 
    0.8774 	   33.8515 	    0.0000 	   45.0000 	   10.1987 
    0.8164 	   33.8715 	    0.0000 	   45.0000 	   10.2387 
    0.5722 	   33.8930 	    0.0000 	   45.0000 	   10.2817 
    0.9689 	   33.9140 	    0.0000 	   45.0000 	   10.3237 
    0.7401 	   33.9345 	    0.0000 	   45.0000 	   10.3647 
    0.8621 	   33.9565 	    0.0000 	   45.0000 	   10.4087 
    0.9232 	   33.9770 	    0.0000 	   45.0000 	   10.4497 
    0.9384 	   33.9980 	    0.0000 	   45.0000 	   10.4917 
    1.0147 	   34.0195 	    0.0000 	   45.0000 	   10.5347 
    0.9842 	   34.0405 	    0.0000 	   45.0000 	   10.5767 
    0.6332 	   34.0630 	    0.0000 	   45.0000 	   10.6217 
    0.9995 	   34.0835 	    0.0000 	   45.0000 	   10.6627 
    0.8927 	   34.1045 	    0.0000 	   45.0000 	   10.7047 
    0.9079 	   34.1265 	    0.0000 	   45.0000 	   10.7477 
    0.9079 	   34.1480 	    0.0000 	   45.0000 	   10.7917 
    1.0147 	   34.1695 	    0.0000 	   45.0000 	   10.8347 
    0.9232 	   34.1895 	    0.0000 	   45.0000 	   10.8747 
    0.9842 	   34.2110 	    0.0000 	   45.0000 	   10.9177 
    0.8164 	   34.2325 	    0.0000 	   45.0000 	   10.9607 
    0.7706 	   34.2545 	    0.0000 	   45.0000 	   11.0047 
    0.8621 	   34.2760 	    0.0000 	   45.0000 	   11.0477 
    0.8469 	   34.2970 	    0.0000 	   45.0000 	   11.0897 
    0.7401 	   34.3180 	    0.0000 	   45.0000 	   11.1317 
    0.8621 	   34.3390 	    0.0000 	   45.0000 	   11.1728 
    0.7858 	   34.3595 	    0.0000 	   45.0000 	   11.2148 
    0.7858 	   34.3810 	    0.0000 	   45.0000 	   11.2578 
    0.7553 	   34.4020 	    0.0000 	   45.0000 	   11.2998 
    0.8164 	   34.4225 	    0.0000 	   45.0000 	   11.3408 
    0.9842 	   34.4440 	    0.0000 	   45.0000 	   11.3838 
    0.9232 	   34.4655 	    0.0000 	   45.0000 	   11.4268 
    0.8469 	   34.4865 	    0.0000 	   45.0000 	   11.4688 
    0.8011 	   34.5080 	    0.0000 	   45.0000 	   11.5118 
    0.5875 	   34.5285 	    0.0000 	   45.0000 	   11.5528 
    0.8621 	   34.5500 	    0.0000 	   45.0000 	   11.5958 
    0.7858 	   34.5705 	    0.0000 	   45.0000 	   11.6368 
    0.8011 	   34.5915 	    0.0000 	   45.0000 	   11.6788 
    0.8621 	   34.6125 	    0.0000 	   45.0000 	   11.7208 
    0.8011 	   34.6335 	    0.0000 	   45.0000 	   11.7628 
    0.9384 	   34.6540 	    0.0000 	   45.0000 	   11.8038 
    1.0147 	   34.6750 	    0.0000 	   45.0000 	   11.8458 
    0.8469 	   34.6965 	    0.0000 	   45.0000 	   11.8888 
    0.9079 	   34.7170 	    0.0000 	   45.0000 	   11.9298 
    0.8469 	   34.7385 	    0.0000 	   45.0000 	   11.9728 
    0.9079 	   34.7590 	    0.0000 	   45.0000 	   12.0138 
    0.7858 	   34.7800 	    0.0000 	   45.0000 	   12.0558 
    0.8774 	   34.8015 	    0.0000 	   45.0000 	   12.0988 
    0.8011 	   34.8225 	    0.0000 	   45.0000 	   12.1408 
    0.9537 	   34.8440 	    0.0000 	   45.0000 	   12.1838 
    0.8621 	   34.8655 	    0.0000 	   45.0000 	   12.2268 
    0.9079 	   34.8865 	    0.0000 	   45.0000 	   12.2688 
    0.8316 	   34.9070 	    0.0000 	   45.0000 	   12.3098 
    0.9079 	   34.9280 	    0.0000 	   45.0000 	   12.3518 
    1.0300 	   34.9485 	    0.0000 	   45.0000 	   12.3928 
    0.7858 	   34.9695 	    0.0000 	   45.0000 	   12.4348 
    0.9537 	   34.9910 	    0.0000 	   45.0000 	   12.4778 
    0.9537 	   35.0100 	    0.0000 	   45.0000 	   12.5158 
    0.8774 	   35.0290 	    0.0000 	   45.0000 	   12.5538 
    0.7401 	   35.0510 	    0.0000 	   45.0000 	   12.5978 
    0.7858 	   35.0710 	    0.0000 	   45.0000 	   12.6378 
    0.6790 	   35.0920 	    0.0000 	   45.0000 	   12.6798 
    0.9079 	   35.1125 	    0.0000 	   45.0000 	   12.7208 
    0.8621 	   35.1335 	    0.0000 	   45.0000 	   12.7628 
    0.8927 	   35.1545 	    0.0000 	   45.0000 	   12.8048 
    0.8469 	   35.1745 	    0.0000 	   45.0000 	   12.8448 
    0.6485 	   35.1960 	    0.0000 	   45.0000 	   12.8878 
    1.0147 	   35.2175 	    0.0000 	   45.0000 	   12.9309 
    0.9232 	   35.2390 	    0.0000 	   45.0000 	   12.9739 
    0.7858 	   35.2605 	    0.0000 	   45.0000 	   13.0169 
    0.8011 	   35.2825 	    0.0000 	   45.0000 	   13.0609 
    0.8164 	   35.3035 	    0.0000 	   45.0000 	   13.1029 
    0.8927 	   35.3255 	    0.0000 	   45.0000 	   13.1469 
    0.8469 	   35.3455 	    0.0000 	   45.0000 	   13.1869 
    0.8469 	   35.3665 	    0.0000 	   45.0000 	   13.2289 
    0.8621 	   35.3880 	    0.0000 	   45.0000 	   13.2719 
    0.8469 	   35.4090 	    0.0000 	   45.0000 	   13.3139 
    0.9537 	   35.4300 	    0.0000 	   45.0000 	   13.3559 
    0.8164 	   35.4505 	    0.0000 	   45.0000 	   13.3969 
    0.9079 	   35.4715 	    0.0000 	   45.0000 	   13.4389 
    0.5570 	   35.4930 	    0.0000 	   45.0000 	   13.4819 
    0.8316 	   35.5135 	    0.0000 	   45.0000 	   13.5229 
    1.0758 	   35.5360 	    0.0000 	   45.0000 	   13.5679 
    1.1215 	   35.5560 	    0.0000 	   45.0000 	   13.6079 
    0.8469 	   35.5815 	    0.0000 	   45.0000 	   13.6589 
    0.9232 	   35.6000 	    0.0000 	   45.0000 	   13.6959 
    1.0910 	   35.6190 	    0.0000 	   45.0000 	   13.7339 
    0.9842 	   35.6380 	    0.0000 	   45.0000 	   13.7719 
    0.9232 	   35.6565 	    0.0000 	   45.0000 	   13.8089 
    1.0147 	   35.6760 	    0.0000 	   45.0000 	   13.8479 
    0.8316 	   35.6950 	    0.0000 	   45.0000 	   13.8859 
    0.9079 	   35.7150 	    0.0000 	   45.0000 	   13.9259 
    0.9232 	   35.7350 	    0.0000 	   45.0000 	   13.9659 
    0.8469 	   35.7535 	    0.0000 	   45.0000 	   14.0029 
    0.8621 	   35.7725 	    0.0000 	   45.0000 	   14.0409 
    0.9995 	   35.7920 	    0.0000 	   45.0000 	   14.0799 
    0.9995 	   35.8110 	    0.0000 	   45.0000 	   14.1179 
    0.8621 	   35.8295 	    0.0000 	   45.0000 	   14.1549 
    0.9537 	   35.8485 	    0.0000 	   45.0000 	   14.1929 
    0.9232 	   35.8675 	    0.0000 	   45.0000 	   14.2309 
    0.9689 	   35.8865 	    0.0000 	   45.0000 	   14.2689 
    0.9232 	   35.9050 	    0.0000 	   45.0000 	   14.3059 
    0.9079 	   35.9240 	    0.0000 	   45.0000 	   14.3439 
    0.7401 	   35.9430 	    0.0000 	   45.0000 	   14.3819 
    0.8774 	   35.9615 	    0.0000 	   45.0000 	   14.4189 
    1.0147 	   35.9805 	    0.0000 	   45.0000 	   14.4569 
    0.6638 	   35.9995 	    0.0000 	   45.0000 	   14.4949 
    0.8621 	   36.0185 	    0.0000 	   45.0000 	   14.5329 
    0.8774 	   36.0375 	    0.0000 	   45.0000 	   14.5709 
    0.8621 	   36.0570 	    0.0000 	   45.0000 	   14.6099 
    0.9842 	   36.0765 	    0.0000 	   45.0000 	   14.6490 
    0.7401 	   36.0955 	    0.0000 	   45.0000 	   14.6870 
    0.7858 	   36.1145 	    0.0000 	   45.0000 	   14.7250 
    0.9995 	   36.1335 	    0.0000 	   45.0000 	   14.7630 
    0.9842 	   36.1525 	    0.0000 	   45.0000 	   14.8010 
    0.8469 	   36.1715 	    0.0000 	   45.0000 	   14.8390 
    0.9079 	   36.1900 	    0.0000 	   45.0000 	   14.8760 
    0.8316 	   36.2090 	    0.0000 	   45.0000 	   14.9140 
    0.8774 	   36.2275 	    0.0000 	   45.0000 	   14.9510 
    0.7858 	   36.2460 	    0.0000 	   45.0000 	   14.9880 
    0.8927 	   36.2645 	    0.0000 	   45.0000 	   15.0250 
    0.7858 	   36.2840 	    0.0000 	   45.0000 	   15.0640 
    0.8469 	   36.3045 	    0.0000 	   45.0000 	   15.1050 
    0.9995 	   36.3265 	    0.0000 	   45.0000 	   15.1490 
    0.9995 	   36.3475 	    0.0000 	   45.0000 	   15.1910 
    1.0452 	   36.3690 	    0.0000 	   45.0000 	   15.2340 
    0.8621 	   36.3900 	    0.0000 	   45.0000 	   15.2760 
    0.9384 	   36.4120 	    0.0000 	   45.0000 	   15.3200 
    0.9384 	   36.4330 	    0.0000 	   45.0000 	   15.3620 
    0.8774 	   36.4540 	    0.0000 	   45.0000 	   15.4040 
    0.8011 	   36.4755 	    0.0000 	   45.0000 	   15.4470 
    0.8621 	   36.4970 	    0.0000 	   45.0000 	   15.4900 
    0.8469 	   36.5175 	    0.0000 	   45.0000 	   15.5310 
    0.8469 	   36.5385 	    0.0000 	   45.0000 	   15.5730 
    0.8774 	   36.5595 	    0.0000 	   45.0000 	   15.6150 
    0.8927 	   36.5810 	    0.0000 	   45.0000 	   15.6580 
    0.8774 	   36.6030 	    0.0000 	   45.0000 	   15.7010 
    0.9079 	   36.6245 	    0.0000 	   45.0000 	   15.7440 
    0.9232 	   36.6450 	    0.0000 	   45.0000 	   15.7850 
    0.9842 	   36.6660 	    0.0000 	   45.0000 	   15.8270 
    0.9842 	   36.6875 	    0.0000 	   45.0000 	   15.8700 
    0.8927 	   36.7080 	    0.0000 	   45.0000 	   15.9110 
    0.9842 	   36.7295 	    0.0000 	   45.0000 	   15.9540 
    0.8011 	   36.7505 	    0.0000 	   45.0000 	   15.9960 
    0.8621 	   36.7695 	    0.0000 	   45.0000 	   16.0340 
    0.9079 	   36.7900 	    0.0000 	   45.0000 	   16.0750 
    0.9079 	   36.8110 	    0.0000 	   45.0000 	   16.1170 
    0.8927 	   36.8325 	    0.0000 	   45.0000 	   16.1600 
    0.9232 	   36.8535 	    0.0000 	   45.0000 	   16.2020 
    0.9537 	   36.8745 	    0.0000 	   45.0000 	   16.2440 
    0.9384 	   36.8975 	    0.0000 	   45.0000 	   16.2900 
    0.8927 	   36.9185 	    0.0000 	   45.0000 	   16.3320 
    0.9079 	   36.9390 	    0.0000 	   45.0000 	   16.3730 
    0.6332 	   36.9595 	    0.0000 	   45.0000 	   16.4141 
    0.7706 	   36.9810 	    0.0000 	   45.0000 	   16.4571 
    0.9232 	   37.0010 	    0.0000 	   45.0000 	   16.4971 
    0.6180 	   37.0230 	    0.0000 	   45.0000 	   16.5411 
    0.8774 	   37.0450 	    0.0000 	   45.0000 	   16.5851 
    0.8316 	   37.0640 	    0.0000 	   45.0000 	   16.6231 
    0.9079 	   37.0825 	    0.0000 	   45.0000 	   16.6601 
    0.9689 	   37.1020 	    0.0000 	   45.0000 	   16.6991 
    0.7706 	   37.1205 	    0.0000 	   45.0000 	   16.7361 
    0.8621 	   37.1420 	    0.0000 	   45.0000 	   16.7791 
    0.8164 	   37.1625 	    0.0000 	   45.0000 	   16.8201 
    0.7858 	   37.1835 	    0.0000 	   45.0000 	   16.8621 
    0.8621 	   37.2045 	    0.0000 	   45.0000 	   16.9041 
    1.0147 	   37.2260 	    0.0000 	   45.0000 	   16.9471 
    0.8774 	   37.2470 	    0.0000 	   45.0000 	   16.9891 
    0.7858 	   37.2675 	    0.0000 	   45.0000 	   17.0301 
    0.9079 	   37.2890 	    0.0000 	   45.0000 	   17.0731 
    0.8469 	   37.3100 	    0.0000 	   45.0000 	   17.1151 
    0.9995 	   37.3310 	    0.0000 	   45.0000 	   17.1571 
    0.8469 	   37.3525 	    0.0000 	   45.0000 	   17.2001 
    0.9384 	   37.3740 	    0.0000 	   45.0000 	   17.2431 
    1.0605 	   37.3945 	    0.0000 	   45.0000 	   17.2841 
    0.6638 	   37.4160 	    0.0000 	   45.0000 	   17.3271 
    0.9384 	   37.4370 	    0.0000 	   45.0000 	   17.3691 
    0.8164 	   37.4565 	    0.0000 	   45.0000 	   17.4081 
    0.9079 	   37.4750 	    0.0000 	   45.0000 	   17.4451 
    1.0452 	   37.4945 	    0.0000 	   45.0000 	   17.4841 
    0.9995 	   37.5135 	    0.0000 	   45.0000 	   17.5221 
    0.8774 	   37.5325 	    0.0000 	   45.0000 	   17.5601 
    0.8927 	   37.5510 	    0.0000 	   45.0000 	   17.5971 
    0.8469 	   37.5720 	    0.0000 	   45.0000 	   17.6391 
    0.8621 	   37.5925 	    0.0000 	   45.0000 	   17.6801 
    0.8927 	   37.6140 	    0.0000 	   45.0000 	   17.7231 
    0.7858 	   37.6350 	    0.0000 	   45.0000 	   17.7651 
    0.8621 	   37.6550 	    0.0000 	   45.0000 	   17.8051 
    0.9232 	   37.6740 	    0.0000 	   45.0000 	   17.8431 
    0.8774 	   37.6930 	    0.0000 	   45.0000 	   17.8811 
    0.9232 	   37.7125 	    0.0000 	   45.0000 	   17.9201 
    0.9537 	   37.7320 	    0.0000 	   45.0000 	   17.9591 
    0.9842 	   37.7510 	    0.0000 	   45.0000 	   17.9971 
    0.9537 	   37.7700 	    0.0000 	   45.0000 	   18.0351 
    0.9232 	   37.7890 	    0.0000 	   45.0000 	   18.0731 
    1.0452 	   37.8080 	    0.0000 	   45.0000 	   18.1111 
    0.9079 	   37.8275 	    0.0000 	   45.0000 	   18.1502 
    0.8011 	   37.8490 	    0.0000 	   45.0000 	   18.1932 
    0.9689 	   37.8700 	    0.0000 	   45.0000 	   18.2352 
    1.0910 	   37.8920 	    0.0000 	   45.0000 	   18.2792 
    0.8469 	   37.9145 	    0.0000 	   45.0000 	   18.3242 
    1.0147 	   37.9360 	    0.0000 	   45.0000 	   18.3672 
    0.9537 	   37.9575 	    0.0000 	   45.0000 	   18.4102 
    0.9537 	   37.9770 	    0.0000 	   45.0000 	   18.4492 
    0.6943 	   37.9960 	    0.0000 	   45.0000 	   18.4872 
    0.8164 	   38.0170 	    0.0000 	   45.0000 	   18.5292 
    0.9384 	   38.0385 	    0.0000 	   45.0000 	   18.5722 
    0.6180 	   38.0605 	    0.0000 	   45.0000 	   18.6162 
    0.9537 	   38.0795 	    0.0000 	   45.0000 	   18.6542 
    0.9079 	   38.0985 	    0.0000 	   45.0000 	   18.6922 
    0.9689 	   38.1175 	    0.0000 	   45.0000 	   18.7302 
    0.8774 	   38.1370 	    0.0000 	   45.0000 	   18.7692 
    0.9079 	   38.1580 	    0.0000 	   45.0000 	   18.8112 
    1.0758 	   38.1785 	    0.0000 	   45.0000 	   18.8522 
    0.9537 	   38.1975 	    0.0000 	   45.0000 	   18.8902 
    0.8927 	   38.2165 	    0.0000 	   45.0000 	   18.9282 
    0.8774 	   38.2355 	    0.0000 	   45.0000 	   18.9662 
    0.9079 	   38.2550 	    0.0000 	   45.0000 	   19.0052 
    0.8774 	   38.2740 	    0.0000 	   45.0000 	   19.0432 
    1.0452 	   38.2940 	    0.0000 	   45.0000 	   19.0832 
    0.9842 	   38.3150 	    0.0000 	   45.0000 	   19.1252 
    0.9079 	   38.3360 	    0.0000 	   45.0000 	   19.1672 
    1.0910 	   38.3570 	    0.0000 	   45.0000 	   19.2092 
    0.8927 	   38.3770 	    0.0000 	   45.0000 	   19.2492 
    0.9384 	   38.3975 	    0.0000 	   45.0000 	   19.2902 
    0.9232 	   38.4175 	    0.0000 	   45.0000 	   19.3302 
    0.7553 	   38.4365 	    0.0000 	   45.0000 	   19.3682 
    1.0300 	   38.4555 	    0.0000 	   45.0000 	   19.4062 
    1.0758 	   38.4745 	    0.0000 	   45.0000 	   19.4442 
    0.7706 	   38.4935 	    0.0000 	   45.0000 	   19.4822 
    0.9232 	   38.5130 	    0.0000 	   45.0000 	   19.5212 
    0.6790 	   38.5320 	    0.0000 	   45.0000 	   19.5592 
    0.8316 	   38.5515 	    0.0000 	   45.0000 	   19.5982 
    0.6790 	   38.5715 	    0.0000 	   45.0000 	   19.6382 
    1.0147 	   38.5930 	    0.0000 	   45.0000 	   19.6812 
    0.8621 	   38.6125 	    0.0000 	   45.0000 	   19.7202 
    0.8011 	   38.6315 	    0.0000 	   45.0000 	   19.7582 
    1.0605 	   38.6505 	    0.0000 	   45.0000 	   19.7962 
    0.8927 	   38.6700 	    0.0000 	   45.0000 	   19.8352 
    1.1063 	   38.6895 	    0.0000 	   45.0000 	   19.8742 
    0.8011 	   38.7110 	    0.0000 	   45.0000 	   19.9173 
    0.9995 	   38.7315 	    0.0000 	   45.0000 	   19.9583 
    0.9842 	   38.7540 	    0.0000 	   45.0000 	   20.0033 
    0.9842 	   38.7755 	    0.0000 	   45.0000 	   20.0463 
    0.8927 	   38.7975 	    0.0000 	   45.0000 	   20.0903 
    0.9232 	   38.8180 	    0.0000 	   45.0000 	   20.1313 
    1.0758 	   38.8400 	    0.0000 	   45.0000 	   20.1753 
    0.9995 	   38.8610 	    0.0000 	   45.0000 	   20.2173 
    0.8774 	   38.8830 	    0.0000 	   45.0000 	   20.2613 
    0.9842 	   38.9040 	    0.0000 	   45.0000 	   20.3033 
    0.6638 	   38.9245 	    0.0000 	   45.0000 	   20.3443 
    0.8164 	   38.9465 	    0.0000 	   45.0000 	   20.3883 
    1.0300 	   38.9680 	    0.0000 	   45.0000 	   20.4313 
    1.0452 	   38.9900 	    0.0000 	   45.0000 	   20.4753 
    0.9689 	   39.0115 	    0.0000 	   45.0000 	   20.5183 
    0.6332 	   39.0325 	    0.0000 	   45.0000 	   20.5603 
    0.8774 	   39.0550 	    0.0000 	   45.0000 	   20.6053 
    0.9842 	   39.0760 	    0.0000 	   45.0000 	   20.6473 
    0.9537 	   39.0965 	    0.0000 	   45.0000 	   20.6883 
    0.8621 	   39.1160 	    0.0000 	   45.0000 	   20.7273 
    0.8774 	   39.1350 	    0.0000 	   45.0000 	   20.7653 
    0.9079 	   39.1560 	    0.0000 	   45.0000 	   20.8073 
    0.9384 	   39.1780 	    0.0000 	   45.0000 	   20.8513 
    0.9537 	   39.1980 	    0.0000 	   45.0000 	   20.8913 
    0.9995 	   39.2175 	    0.0000 	   45.0000 	   20.9303 
    0.9232 	   39.2370 	    0.0000 	   45.0000 	   20.9693 
    1.0605 	   39.2580 	    0.0000 	   45.0000 	   21.0113 
    0.9537 	   39.2785 	    0.0000 	   45.0000 	   21.0523 
    0.8621 	   39.2980 	    0.0000 	   45.0000 	   21.0913 
    1.0147 	   39.3170 	    0.0000 	   45.0000 	   21.1293 
    1.0452 	   39.3365 	    0.0000 	   45.0000 	   21.1683 
    0.9232 	   39.3565 	    0.0000 	   45.0000 	   21.2083 
    1.0300 	   39.3760 	    0.0000 	   45.0000 	   21.2473 
    0.9689 	   39.3960 	    0.0000 	   45.0000 	   21.2873 
    0.8774 	   39.4155 	    0.0000 	   45.0000 	   21.3263 
    1.1978 	   39.4345 	    0.0000 	   45.0000 	   21.3643 
    0.9995 	   39.4545 	    0.0000 	   45.0000 	   21.4043 
    0.6638 	   39.4745 	    0.0000 	   45.0000 	   21.4443 
    1.0605 	   39.4935 	    0.0000 	   45.0000 	   21.4823 
    0.9232 	   39.5130 	    0.0000 	   45.0000 	   21.5213 
    0.9537 	   39.5335 	    0.0000 	   45.0000 	   21.5623 
    0.9079 	   39.5535 	    0.0000 	   45.0000 	   21.6023 
    1.1215 	   39.5725 	    0.0000 	   45.0000 	   21.6404 
    0.9537 	   39.5920 	    0.0000 	   45.0000 	   21.6794 
    1.0147 	   39.6115 	    0.0000 	   45.0000 	   21.7184 
    0.9842 	   39.6320 	    0.0000 	   45.0000 	   21.7594 
    0.9384 	   39.6510 	    0.0000 	   45.0000 	   21.7974 
    0.4959 	   39.6710 	    0.0000 	   45.0000 	   21.8374 
    0.9995 	   39.6900 	    0.0000 	   45.0000 	   21.8754 
    0.8774 	   39.7090 	    0.0000 	   45.0000 	   21.9134 
    0.7858 	   39.7285 	    0.0000 	   45.0000 	   21.9524 
    1.0300 	   39.7480 	    0.0000 	   45.0000 	   21.9914 
    0.8469 	   39.7670 	    0.0000 	   45.0000 	   22.0294 
    1.0910 	   39.7870 	    0.0000 	   45.0000 	   22.0694 
    0.9995 	   39.8060 	    0.0000 	   45.0000 	   22.1074 
    0.8927 	   39.8255 	    0.0000 	   45.0000 	   22.1464 
    1.0910 	   39.8445 	    0.0000 	   45.0000 	   22.1844 
    0.6638 	   39.8640 	    0.0000 	   45.0000 	   22.2234 
    0.9232 	   39.8845 	    0.0000 	   45.0000 	   22.2644 
    0.8774 	   39.9065 	    0.0000 	   45.0000 	   22.3084 
    1.0605 	   39.9285 	    0.0000 	   45.0000 	   22.3524 
    0.6332 	   39.9505 	    0.0000 	   45.0000 	   22.3964 
    0.9384 	   39.9720 	    0.0000 	   45.0000 	   22.4394 
    0.6180 	   39.9935 	    0.0000 	   45.0000 	   22.4824 
    0.9232 	   40.0155 	    0.0000 	   45.0000 	   22.5264 
    0.9537 	   40.0360 	    0.0000 	   45.0000 	   22.5674 
    0.9384 	   40.0575 	    0.0000 	   45.0000 	   22.6104 
    0.9079 	   40.0770 	    0.0000 	   45.0000 	   22.6494 
    0.9384 	   40.0965 	    0.0000 	   45.0000 	   22.6884 
    1.1826 	   40.1165 	    0.0000 	   45.0000 	   22.7284 
    0.8621 	   40.1355 	    0.0000 	   45.0000 	   22.7664 
    0.9232 	   40.1550 	    0.0000 	   45.0000 	   22.8054 
    0.9842 	   40.1745 	    0.0000 	   45.0000 	   22.8444 
    0.8774 	   40.1945 	    0.0000 	   45.0000 	   22.8844 
    0.9384 	   40.2160 	    0.0000 	   45.0000 	   22.9274 
    1.0300 	   40.2365 	    0.0000 	   45.0000 	   22.9684 
    0.9689 	   40.2570 	    0.0000 	   45.0000 	   23.0094 
    0.9689 	   40.2765 	    0.0000 	   45.0000 	   23.0484 
    0.9079 	   40.2965 	    0.0000 	   45.0000 	   23.0884 
    1.1521 	   40.3160 	    0.0000 	   45.0000 	   23.1274 
    0.8011 	   40.3360 	    0.0000 	   45.0000 	   23.1674 
    1.0147 	   40.3555 	    0.0000 	   45.0000 	   23.2064 
    0.9079 	   40.3755 	    0.0000 	   45.0000 	   23.2464 
    0.9689 	   40.3980 	    0.0000 	   45.0000 	   23.2914 
    1.0758 	   40.4195 	    0.0000 	   45.0000 	   23.3344 
    0.9995 	   40.4420 	    0.0000 	   45.0000 	   23.3794 
    0.8774 	   40.4640 	    0.0000 	   45.0000 	   23.4235 
    0.9995 	   40.4855 	    0.0000 	   45.0000 	   23.4665 
    1.0300 	   40.5075 	    0.0000 	   45.0000 	   23.5105 
    1.0147 	   40.5290 	    0.0000 	   45.0000 	   23.5535 
    0.9995 	   40.5500 	    0.0000 	   45.0000 	   23.5955 
    0.9384 	   40.5715 	    0.0000 	   45.0000 	   23.6385 
    0.6027 	   40.5930 	    0.0000 	   45.0000 	   23.6815 
    0.9232 	   40.6150 	    0.0000 	   45.0000 	   23.7255 
    0.9842 	   40.6365 	    0.0000 	   45.0000 	   23.7685 
    0.6790 	   40.6585 	    0.0000 	   45.0000 	   23.8125 
    0.9842 	   40.6810 	    0.0000 	   45.0000 	   23.8575 
    0.9232 	   40.7015 	    0.0000 	   45.0000 	   23.8985 
    1.0300 	   40.7235 	    0.0000 	   45.0000 	   23.9425 
    1.1521 	   40.7455 	    0.0000 	   45.0000 	   23.9865 
    0.7095 	   40.7675 	    0.0000 	   45.0000 	   24.0305 
    1.0758 	   40.7895 	    0.0000 	   45.0000 	   24.0745 
    0.8927 	   40.8110 	    0.0000 	   45.0000 	   24.1175 
    0.9842 	   40.8335 	    0.0000 	   45.0000 	   24.1625 
    0.8774 	   40.8550 	    0.0000 	   45.0000 	   24.2055 
    0.9384 	   40.8765 	    0.0000 	   45.0000 	   24.2485 
    0.6332 	   40.8980 	    0.0000 	   45.0000 	   24.2915 
    0.8927 	   40.9195 	    0.0000 	   45.0000 	   24.3345 
    0.9995 	   40.9415 	    0.0000 	   45.0000 	   24.3785 
    0.9384 	   40.9625 	    0.0000 	   45.0000 	   24.4205 
    0.9079 	   40.9835 	    0.0000 	   45.0000 	   24.4625 
    0.9995 	   41.0040 	    0.0000 	   45.0000 	   24.5035 
    0.9995 	   41.0235 	    0.0000 	   45.0000 	   24.5425 
    0.7553 	   41.0465 	    0.0000 	   45.0000 	   24.5885 
    0.9995 	   41.0675 	    0.0000 	   45.0000 	   24.6305 
    1.0605 	   41.0875 	    0.0000 	   45.0000 	   24.6705 
    0.9384 	   41.1075 	    0.0000 	   45.0000 	   24.7105 
    0.9232 	   41.1265 	    0.0000 	   45.0000 	   24.7485 
    0.9537 	   41.1460 	    0.0000 	   45.0000 	   24.7875 
    0.9384 	   41.1660 	    0.0000 	   45.0000 	   24.8275 
    1.0147 	   41.1855 	    0.0000 	   45.0000 	   24.8655 
    0.9995 	   41.2060 	    0.0000 	   45.0000 	   24.9075 
    0.9842 	   41.2270 	    0.0000 	   45.0000 	   24.9495 
    0.8774 	   41.2495 	    0.0000 	   45.0000 	   24.9945 
    0.9079 	   41.2710 	    0.0000 	   45.0000 	   25.0375 
    0.8316 	   41.2925 	    0.0000 	   45.0000 	   25.0805 
    0.9995 	   41.3140 	    0.0000 	   45.0000 	   25.1235 
    0.9079 	   41.3360 	    0.0000 	   45.0000 	   25.1676 
    0.9995 	   41.3580 	    0.0000 	   45.0000 	   25.2116 
    0.9689 	   41.3795 	    0.0000 	   45.0000 	   25.2546 
    0.8621 	   41.4005 	    0.0000 	   45.0000 	   25.2966 
    1.0300 	   41.4225 	    0.0000 	   45.0000 	   25.3406 
    1.0147 	   41.4445 	    0.0000 	   45.0000 	   25.3846 
    1.0758 	   41.4655 	    0.0000 	   45.0000 	   25.4266 
    0.9842 	   41.4865 	    0.0000 	   45.0000 	   25.4686 
    0.9079 	   41.5080 	    0.0000 	   45.0000 	   25.5116 
    1.0147 	   41.5305 	    0.0000 	   45.0000 	   25.5566 
    1.0605 	   41.5515 	    0.0000 	   45.0000 	   25.5986 
    0.8774 	   41.5725 	    0.0000 	   45.0000 	   25.6406 
    0.8774 	   41.5930 	    0.0000 	   45.0000 	   25.6816 
    0.9842 	   41.6150 	    0.0000 	   45.0000 	   25.7256 
    0.9995 	   41.6355 	    0.0000 	   45.0000 	   25.7666 
    0.8621 	   41.6550 	    0.0000 	   45.0000 	   25.8056 
    1.1215 	   41.6755 	    0.0000 	   45.0000 	   25.8466 
    0.9232 	   41.6950 	    0.0000 	   45.0000 	   25.8856 
    0.9995 	   41.7145 	    0.0000 	   45.0000 	   25.9246 
    0.9232 	   41.7345 	    0.0000 	   45.0000 	   25.9646 
    0.8774 	   41.7540 	    0.0000 	   45.0000 	   26.0036 
    0.7858 	   41.7745 	    0.0000 	   45.0000 	   26.0446 
    0.9689 	   41.7940 	    0.0000 	   45.0000 	   26.0836 
    1.0452 	   41.8140 	    0.0000 	   45.0000 	   26.1236 
    0.9689 	   41.8335 	    0.0000 	   45.0000 	   26.1626 
    1.0300 	   41.8530 	    0.0000 	   45.0000 	   26.2016 
    0.8011 	   41.8730 	    0.0000 	   45.0000 	   26.2416 
    1.1063 	   41.8925 	    0.0000 	   45.0000 	   26.2806 
    1.0147 	   41.9125 	    0.0000 	   45.0000 	   26.3206 
    1.0147 	   41.9320 	    0.0000 	   45.0000 	   26.3596 
    1.1215 	   41.9515 	    0.0000 	   45.0000 	   26.3986 
    0.9995 	   41.9715 	    0.0000 	   45.0000 	   26.4386 
    1.0605 	   41.9915 	    0.0000 	   45.0000 	   26.4786 
    0.9995 	   42.0115 	    0.0000 	   45.0000 	   26.5186 
    0.9079 	   42.0315 	    0.0000 	   45.0000 	   26.5586 
    1.0758 	   42.0530 	    0.0000 	   45.0000 	   26.6016 
    1.0605 	   42.0730 	    0.0000 	   45.0000 	   26.6416 
    0.9384 	   42.0930 	    0.0000 	   45.0000 	   26.6816 
    1.0452 	   42.1125 	    0.0000 	   45.0000 	   26.7206 
    0.9995 	   42.1320 	    0.0000 	   45.0000 	   26.7596 
    0.9232 	   42.1520 	    0.0000 	   45.0000 	   26.7996 
    0.8774 	   42.1720 	    0.0000 	   45.0000 	   26.8396 
    1.0452 	   42.1925 	    0.0000 	   45.0000 	   26.8806 
    1.0605 	   42.2140 	    0.0000 	   45.0000 	   26.9237 
    1.0147 	   42.2355 	    0.0000 	   45.0000 	   26.9667 
    0.9995 	   42.2590 	    0.0000 	   45.0000 	   27.0137 
    1.0300 	   42.2795 	    0.0000 	   45.0000 	   27.0547 
    1.0910 	   42.3010 	    0.0000 	   45.0000 	   27.0977 
    1.0147 	   42.3220 	    0.0000 	   45.0000 	   27.1397 
    1.0910 	   42.3435 	    0.0000 	   45.0000 	   27.1827 
    0.9842 	   42.3645 	    0.0000 	   45.0000 	   27.2247 
    0.9842 	   42.3870 	    0.0000 	   45.0000 	   27.2697 
    0.9384 	   42.4085 	    0.0000 	   45.0000 	   27.3127 
    0.7401 	   42.4305 	    0.0000 	   45.0000 	   27.3567 
    0.9995 	   42.4525 	    0.0000 	   45.0000 	   27.4007 
    1.0452 	   42.4745 	    0.0000 	   45.0000 	   27.4447 
    0.9079 	   42.4940 	    0.0000 	   45.0000 	   27.4837 
    1.1063 	   42.5135 	    0.0000 	   45.0000 	   27.5227 
    0.8621 	   42.5340 	    0.0000 	   45.0000 	   27.5637 
    0.8469 	   42.5535 	    0.0000 	   45.0000 	   27.6027 
    1.0758 	   42.5815 	    0.0000 	   45.0000 	   27.6587 
    1.0758 	   42.5980 	    0.0000 	   45.0000 	   27.6917 
    1.0452 	   42.6190 	    0.0000 	   45.0000 	   27.7337 
    1.0452 	   42.6405 	    0.0000 	   45.0000 	   27.7767 
    0.9842 	   42.6595 	    0.0000 	   45.0000 	   27.8147 
    1.0605 	   42.6790 	    0.0000 	   45.0000 	   27.8537 
    1.1368 	   42.7000 	    0.0000 	   45.0000 	   27.8957 
    0.9079 	   42.7200 	    0.0000 	   45.0000 	   27.9347 
    0.9232 	   42.7400 	    0.0000 	   45.0000 	   27.9757 
    1.0452 	   42.7605 	    0.0000 	   45.0000 	   28.0167 
    0.8011 	   42.7825 	    0.0000 	   45.0000 	   28.0607 
    1.1368 	   42.8030 	    0.0000 	   45.0000 	   28.1017 
    1.0605 	   42.8225 	    0.0000 	   45.0000 	   28.1407 
    0.9537 	   42.8430 	    0.0000 	   45.0000 	   28.1817 
    0.8927 	   42.8630 	    0.0000 	   45.0000 	   28.2207 
    1.0147 	   42.8830 	    0.0000 	   45.0000 	   28.2617 
    1.0147 	   42.9025 	    0.0000 	   45.0000 	   28.3007 
    0.9232 	   42.9225 	    0.0000 	   45.0000 	   28.3407 
    0.9232 	   42.9430 	    0.0000 	   45.0000 	   28.3817 
    1.1521 	   42.9650 	    0.0000 	   45.0000 	   28.4257 
    0.9842 	   42.9880 	    0.0000 	   45.0000 	   28.4717 
    1.0605 	   43.0085 	    0.0000 	   45.0000 	   28.5127 
    1.0300 	   43.0280 	    0.0000 	   45.0000 	   28.5517 
    0.8774 	   43.0500 	    0.0000 	   45.0000 	   28.5957 
    0.9384 	   43.0700 	    0.0000 	   45.0000 	   28.6357 
    1.1368 	   43.0905 	    0.0000 	   45.0000 	   28.6768 
    1.0147 	   43.1100 	    0.0000 	   45.0000 	   28.7158 
    0.8621 	   43.1325 	    0.0000 	   45.0000 	   28.7608 
    0.9079 	   43.1545 	    0.0000 	   45.0000 	   28.8048 
    1.1215 	   43.1765 	    0.0000 	   45.0000 	   28.8488 
    0.9537 	   43.1975 	    0.0000 	   45.0000 	   28.8908 
    0.8927 	   43.2180 	    0.0000 	   45.0000 	   28.9318 
    0.9995 	   43.2405 	    0.0000 	   45.0000 	   28.9768 
    1.1673 	   43.2625 	    0.0000 	   45.0000 	   29.0208 
    1.0605 	   43.2845 	    0.0000 	   45.0000 	   29.0648 
    1.0452 	   43.3065 	    0.0000 	   45.0000 	   29.1088 
    0.9537 	   43.3285 	    0.0000 	   45.0000 	   29.1528 
    0.9995 	   43.3515 	    0.0000 	   45.0000 	   29.1988 
    0.9079 	   43.3730 	    0.0000 	   45.0000 	   29.2418 
    1.0910 	   43.3945 	    0.0000 	   45.0000 	   29.2848 
    0.9842 	   43.4160 	    0.0000 	   45.0000 	   29.3278 
    1.0147 	   43.4360 	    0.0000 	   45.0000 	   29.3678 
    0.9995 	   43.4585 	    0.0000 	   45.0000 	   29.4128 
    1.0758 	   43.4810 	    0.0000 	   45.0000 	   29.4578 
    0.9384 	   43.5025 	    0.0000 	   45.0000 	   29.5008 
    1.1063 	   43.5245 	    0.0000 	   45.0000 	   29.5448 
    1.0147 	   43.5465 	    0.0000 	   45.0000 	   29.5888 
    1.0147 	   43.5670 	    0.0000 	   45.0000 	   29.6298 
    1.0452 	   43.5890 	    0.0000 	   45.0000 	   29.6738 
    0.9537 	   43.6120 	    0.0000 	   45.0000 	   29.7198 
    1.1063 	   43.6340 	    0.0000 	   45.0000 	   29.7638 
    1.1063 	   43.6565 	    0.0000 	   45.0000 	   29.8088 
    0.9995 	   43.6785 	    0.0000 	   45.0000 	   29.8528 
    0.9842 	   43.7015 	    0.0000 	   45.0000 	   29.8988 
    1.0605 	   43.7240 	    0.0000 	   45.0000 	   29.9438 
    0.9842 	   43.7470 	    0.0000 	   45.0000 	   29.9898 
    0.9842 	   43.7700 	    0.0000 	   45.0000 	   30.0358 
    1.0605 	   43.7910 	    0.0000 	   45.0000 	   30.0778 
    1.0147 	   43.8140 	    0.0000 	   45.0000 	   30.1238 
    0.9842 	   43.8375 	    0.0000 	   45.0000 	   30.1708 
    1.0605 	   43.8600 	    0.0000 	   45.0000 	   30.2158 
    1.1215 	   43.8820 	    0.0000 	   45.0000 	   30.2598 
    1.0758 	   43.9035 	    0.0000 	   45.0000 	   30.3028 
    1.1215 	   43.9265 	    0.0000 	   45.0000 	   30.3488 
    0.9842 	   43.9485 	    0.0000 	   45.0000 	   30.3929 
    1.0300 	   43.9710 	    0.0000 	   45.0000 	   30.4379 
    1.1368 	   43.9940 	    0.0000 	   45.0000 	   30.4839 
    1.0605 	   44.0155 	    0.0000 	   45.0000 	   30.5269 
    1.1978 	   44.0395 	    0.0000 	   45.0000 	   30.5749 
    1.1673 	   44.0635 	    0.0000 	   45.0000 	   30.6229 
    0.7553 	   44.0850 	    0.0000 	   45.0000 	   30.6659 
    0.9995 	   44.1090 	    0.0000 	   45.0000 	   30.7139 
    0.9995 	   44.1325 	    0.0000 	   45.0000 	   30.7609 
    0.9842 	   44.1545 	    0.0000 	   45.0000 	   30.8049 
    0.9079 	   44.1780 	    0.0000 	   45.0000 	   30.8519 
    1.0300 	   44.2005 	    0.0000 	   45.0000 	   30.8969 
    0.9842 	   44.2230 	    0.0000 	   45.0000 	   30.9419 
    1.2131 	   44.2450 	    0.0000 	   45.0000 	   30.9859 
    0.9995 	   44.2675 	    0.0000 	   45.0000 	   31.0309 
    1.0758 	   44.2895 	    0.0000 	   45.0000 	   31.0749 
    0.9842 	   44.3110 	    0.0000 	   45.0000 	   31.1179 
    1.1215 	   44.3335 	    0.0000 	   45.0000 	   31.1629 
    1.1368 	   44.3570 	    0.0000 	   45.0000 	   31.2099 
    1.0300 	   44.3790 	    0.0000 	   45.0000 	   31.2539 
    0.8774 	   44.4020 	    0.0000 	   45.0000 	   31.2999 
    0.9995 	   44.4245 	    0.0000 	   45.0000 	   31.3449 
    0.9079 	   44.4475 	    0.0000 	   45.0000 	   31.3909 
    1.0452 	   44.4680 	    0.0000 	   45.0000 	   31.4319 
    0.8469 	   44.4885 	    0.0000 	   45.0000 	   31.4729 
    1.1063 	   44.5085 	    0.0000 	   45.0000 	   31.5129 
    0.9995 	   44.5290 	    0.0000 	   45.0000 	   31.5539 
    0.9232 	   44.5485 	    0.0000 	   45.0000 	   31.5929 
    1.2131 	   44.5685 	    0.0000 	   45.0000 	   31.6329 
    0.9689 	   44.5895 	    0.0000 	   45.0000 	   31.6739 
    1.0452 	   44.6095 	    0.0000 	   45.0000 	   31.7149 
    1.0452 	   44.6295 	    0.0000 	   45.0000 	   31.7549 
    0.9384 	   44.6500 	    0.0000 	   45.0000 	   31.7959 
    1.0452 	   44.6700 	    0.0000 	   45.0000 	   31.8359 
    1.1215 	   44.6900 	    0.0000 	   45.0000 	   31.8759 
    1.0910 	   44.7100 	    0.0000 	   45.0000 	   31.9159 
    0.9232 	   44.7300 	    0.0000 	   45.0000 	   31.9559 
    1.0910 	   44.7505 	    0.0000 	   45.0000 	   31.9969 
    1.0147 	   44.7710 	    0.0000 	   45.0000 	   32.0379 
    1.1521 	   44.7915 	    0.0000 	   45.0000 	   32.0789 
    0.9995 	   44.8115 	    0.0000 	   45.0000 	   32.1189 
    1.0300 	   44.8315 	    0.0000 	   45.0000 	   32.1590 
    1.0452 	   44.8525 	    0.0000 	   45.0000 	   32.2010 
    1.0910 	   44.8745 	    0.0000 	   45.0000 	   32.2450 
    1.0452 	   44.8970 	    0.0000 	   45.0000 	   32.2900 
    1.1521 	   44.9195 	    0.0000 	   45.0000 	   32.3350 
    0.7248 	   44.9415 	    0.0000 	   45.0000 	   32.3790 
    1.1978 	   44.9635 	    0.0000 	   45.0000 	   32.4230 
    0.9995 	   44.9860 	    0.0000 	   45.0000 	   32.4680 
    1.1826 	   45.0085 	    0.0000 	   45.0000 	   32.5130 
    1.2436 	   45.0310 	    0.0000 	   45.0000 	   32.5580 
    0.9537 	   45.0545 	    0.0000 	   45.0000 	   32.6050 
    0.9842 	   45.0765 	    0.0000 	   45.0000 	   32.6490 
    0.9537 	   45.0980 	    0.0000 	   45.0000 	   32.6920 
    0.9995 	   45.1205 	    0.0000 	   45.0000 	   32.7370 
    1.0147 	   45.1425 	    0.0000 	   45.0000 	   32.7810 
    0.9232 	   45.1660 	    0.0000 	   45.0000 	   32.8280 
    1.1063 	   45.1880 	    0.0000 	   45.0000 	   32.8720 
    0.9995 	   45.2100 	    0.0000 	   45.0000 	   32.9160 
    1.0147 	   45.2320 	    0.0000 	   45.0000 	   32.9600 
    1.0147 	   45.2540 	    0.0000 	   45.0000 	   33.0040 
    0.9232 	   45.2770 	    0.0000 	   45.0000 	   33.0500 
    1.0758 	   45.2995 	    0.0000 	   45.0000 	   33.0950 
    0.9995 	   45.3220 	    0.0000 	   45.0000 	   33.1400 
    1.1521 	   45.3455 	    0.0000 	   45.0000 	   33.1860 
    0.9842 	   45.3680 	    0.0000 	   45.0000 	   33.2310 
    0.9537 	   45.3910 	    0.0000 	   45.0000 	   33.2770 
    1.0758 	   45.4135 	    0.0000 	   45.0000 	   33.3220 
    1.0910 	   45.4375 	    0.0000 	   45.0000 	   33.3700 
    0.9079 	   45.4595 	    0.0000 	   45.0000 	   33.4140 
    1.0910 	   45.4815 	    0.0000 	   45.0000 	   33.4580 
    1.1368 	   45.5055 	    0.0000 	   45.0000 	   33.5060 
    1.1063 	   45.5275 	    0.0000 	   45.0000 	   33.5500 
    1.0300 	   45.5510 	    0.0000 	   45.0000 	   33.5970 
    1.0300 	   45.5730 	    0.0000 	   45.0000 	   33.6410 
    1.1521 	   45.5950 	    0.0000 	   45.0000 	   33.6850 
    0.9995 	   45.6170 	    0.0000 	   45.0000 	   33.7290 
    0.8164 	   45.6385 	    0.0000 	   45.0000 	   33.7720 
    0.9995 	   45.6605 	    0.0000 	   45.0000 	   33.8160 
    1.1215 	   45.6830 	    0.0000 	   45.0000 	   33.8610 
    1.2131 	   45.7040 	    0.0000 	   45.0000 	   33.9031 
    1.0452 	   45.7270 	    0.0000 	   45.0000 	   33.9491 
    0.9689 	   45.7490 	    0.0000 	   45.0000 	   33.9931 
    0.7553 	   45.7710 	    0.0000 	   45.0000 	   34.0371 
    0.9842 	   45.7935 	    0.0000 	   45.0000 	   34.0821 
    1.1063 	   45.8155 	    0.0000 	   45.0000 	   34.1261 
    0.9689 	   45.8385 	    0.0000 	   45.0000 	   34.1721 
    1.1826 	   45.8605 	    0.0000 	   45.0000 	   34.2161 
    1.0605 	   45.8830 	    0.0000 	   45.0000 	   34.2611 
    1.0452 	   45.9060 	    0.0000 	   45.0000 	   34.3071 
    1.0147 	   45.9290 	    0.0000 	   45.0000 	   34.3531 
    1.0147 	   45.9500 	    0.0000 	   45.0000 	   34.3951 
    1.0147 	   45.9720 	    0.0000 	   45.0000 	   34.4391 
    0.9537 	   45.9940 	    0.0000 	   45.0000 	   34.4831 
    1.0452 	   46.0170 	    0.0000 	   45.0000 	   34.5291 
    1.1826 	   46.0395 	    0.0000 	   45.0000 	   34.5741 
    1.1978 	   46.0630 	    0.0000 	   45.0000 	   34.6211 
    1.0605 	   46.0845 	    0.0000 	   45.0000 	   34.6641 
    1.1063 	   46.1070 	    0.0000 	   45.0000 	   34.7091 
    0.9995 	   46.1300 	    0.0000 	   45.0000 	   34.7551 
    1.0147 	   46.1530 	    0.0000 	   45.0000 	   34.8011 
    1.0910 	   46.1745 	    0.0000 	   45.0000 	   34.8441 
    0.7401 	   46.1955 	    0.0000 	   45.0000 	   34.8861 
    0.8164 	   46.2180 	    0.0000 	   45.0000 	   34.9311 
    1.0147 	   46.2395 	    0.0000 	   45.0000 	   34.9741 
    1.0452 	   46.2630 	    0.0000 	   45.0000 	   35.0211 
    1.0758 	   46.2855 	    0.0000 	   45.0000 	   35.0661 
    0.9995 	   46.3080 	    0.0000 	   45.0000 	   35.1111 
    1.0452 	   46.3310 	    0.0000 	   45.0000 	   35.1571 
    1.1215 	   46.3535 	    0.0000 	   45.0000 	   35.2021 
    1.0147 	   46.3760 	    0.0000 	   45.0000 	   35.2471 
    0.9995 	   46.3975 	    0.0000 	   45.0000 	   35.2901 
    1.0452 	   46.4205 	    0.0000 	   45.0000 	   35.3361 
    1.0300 	   46.4435 	    0.0000 	   45.0000 	   35.3821 
    1.0147 	   46.4665 	    0.0000 	   45.0000 	   35.4281 
    1.1368 	   46.4890 	    0.0000 	   45.0000 	   35.4731 
    0.9995 	   46.5125 	    0.0000 	   45.0000 	   35.5201 
    1.1978 	   46.5335 	    0.0000 	   45.0000 	   35.5621 
    1.0147 	   46.5555 	    0.0000 	   45.0000 	   35.6061 
    1.0452 	   46.5780 	    0.0000 	   45.0000 	   35.6511 
    1.0910 	   46.6015 	    0.0000 	   45.0000 	   35.6982 
    0.9384 	   46.6235 	    0.0000 	   45.0000 	   35.7422 
    1.0147 	   46.6460 	    0.0000 	   45.0000 	   35.7872 
    1.0758 	   46.6690 	    0.0000 	   45.0000 	   35.8332 
    0.9537 	   46.6920 	    0.0000 	   45.0000 	   35.8792 
    0.9537 	   46.7145 	    0.0000 	   45.0000 	   35.9242 
    0.9842 	   46.7370 	    0.0000 	   45.0000 	   35.9692 
    1.0147 	   46.7590 	    0.0000 	   45.0000 	   36.0132 
    0.9995 	   46.7805 	    0.0000 	   45.0000 	   36.0562 
    1.0452 	   46.8040 	    0.0000 	   45.0000 	   36.1032 
    1.1368 	   46.8260 	    0.0000 	   45.0000 	   36.1472 
    1.1063 	   46.8490 	    0.0000 	   45.0000 	   36.1932 
    1.1521 	   46.8720 	    0.0000 	   45.0000 	   36.2392 
    0.9842 	   46.8945 	    0.0000 	   45.0000 	   36.2842 
    0.9842 	   46.9175 	    0.0000 	   45.0000 	   36.3302 
    1.1673 	   46.9380 	    0.0000 	   45.0000 	   36.3712 
    1.0452 	   46.9590 	    0.0000 	   45.0000 	   36.4132 
    1.1063 	   46.9795 	    0.0000 	   45.0000 	   36.4542 
    0.9995 	   47.0000 	    0.0000 	   45.0000 	   36.4952 
    0.8927 	   47.0205 	    0.0000 	   45.0000 	   36.5362 
    1.0452 	   47.0430 	    0.0000 	   45.0000 	   36.5812 
    1.1063 	   47.0635 	    0.0000 	   45.0000 	   36.6222 
    0.9384 	   47.0860 	    0.0000 	   45.0000 	   36.6672 
    1.0605 	   47.1065 	    0.0000 	   45.0000 	   36.7082 
    0.9232 	   47.1270 	    0.0000 	   45.0000 	   36.7492 
    1.0300 	   47.1470 	    0.0000 	   45.0000 	   36.7892 
    1.0605 	   47.1700 	    0.0000 	   45.0000 	   36.8352 
    0.9537 	   47.1905 	    0.0000 	   45.0000 	   36.8762 
    1.1063 	   47.2110 	    0.0000 	   45.0000 	   36.9172 
    0.8774 	   47.2315 	    0.0000 	   45.0000 	   36.9582 
    1.0605 	   47.2520 	    0.0000 	   45.0000 	   36.9992 
    1.1368 	   47.2740 	    0.0000 	   45.0000 	   37.0432 
    1.1368 	   47.2965 	    0.0000 	   45.0000 	   37.0882 
    0.9995 	   47.3185 	    0.0000 	   45.0000 	   37.1322 
    1.1978 	   47.3415 	    0.0000 	   45.0000 	   37.1772 
    1.0300 	   47.3635 	    0.0000 	   45.0000 	   37.2222 
    1.0605 	   47.3865 	    0.0000 	   45.0000 	   37.2682 
    1.2284 	   47.4095 	    0.0000 	   45.0000 	   37.3142 
    0.8774 	   47.4305 	    0.0000 	   45.0000 	   37.3562 
    1.1521 	   47.4505 	    0.0000 	   45.0000 	   37.3963 
    1.0452 	   47.4720 	    0.0000 	   45.0000 	   37.4393 
    1.1368 	   47.4940 	    0.0000 	   45.0000 	   37.4833 
    0.9995 	   47.5145 	    0.0000 	   45.0000 	   37.5243 
    1.2131 	   47.5350 	    0.0000 	   45.0000 	   37.5653 
    0.9995 	   47.5560 	    0.0000 	   45.0000 	   37.6073 
    1.0300 	   47.5815 	    0.0000 	   45.0000 	   37.6583 
    1.0452 	   47.6045 	    0.0000 	   45.0000 	   37.7043 
    0.9842 	   47.6270 	    0.0000 	   45.0000 	   37.7493 
    0.9537 	   47.6495 	    0.0000 	   45.0000 	   37.7943 
    1.0300 	   47.6730 	    0.0000 	   45.0000 	   37.8413 
    1.0452 	   47.6960 	    0.0000 	   45.0000 	   37.8873 
    0.8469 	   47.7175 	    0.0000 	   45.0000 	   37.9303 
    1.0910 	   47.7400 	    0.0000 	   45.0000 	   37.9753 
    1.0452 	   47.7640 	    0.0000 	   45.0000 	   38.0233 
    0.8316 	   47.7865 	    0.0000 	   45.0000 	   38.0683 
    1.0910 	   47.8080 	    0.0000 	   45.0000 	   38.1113 
    1.1521 	   47.8295 	    0.0000 	   45.0000 	   38.1543 
    1.1521 	   47.8540 	    0.0000 	   45.0000 	   38.2033 
    1.0452 	   47.8755 	    0.0000 	   45.0000 	   38.2463 
    1.1521 	   47.8975 	    0.0000 	   45.0000 	   38.2903 
    1.0147 	   47.9200 	    0.0000 	   45.0000 	   38.3353 
    1.1215 	   47.9405 	    0.0000 	   45.0000 	   38.3763 
    1.1826 	   47.9615 	    0.0000 	   45.0000 	   38.4183 
    1.1063 	   47.9815 	    0.0000 	   45.0000 	   38.4583 
    0.7706 	   48.0030 	    0.0000 	   45.0000 	   38.5013 
    1.0147 	   48.0235 	    0.0000 	   45.0000 	   38.5423 
    1.0758 	   48.0465 	    0.0000 	   45.0000 	   38.5883 
    1.0910 	   48.0690 	    0.0000 	   45.0000 	   38.6333 
    1.1368 	   48.0895 	    0.0000 	   45.0000 	   38.6743 
    1.1978 	   48.1100 	    0.0000 	   45.0000 	   38.7153 
    1.1063 	   48.1310 	    0.0000 	   45.0000 	   38.7573 
    1.0300 	   48.1515 	    0.0000 	   45.0000 	   38.7983 
    1.0605 	   48.1720 	    0.0000 	   45.0000 	   38.8393 
    1.1215 	   48.1930 	    0.0000 	   45.0000 	   38.8813 
    1.1826 	   48.2140 	    0.0000 	   45.0000 	   38.9233 
    1.1215 	   48.2345 	    0.0000 	   45.0000 	   38.9643 
    1.1063 	   48.2550 	    0.0000 	   45.0000 	   39.0053 
    1.2894 	   48.2755 	    0.0000 	   45.0000 	   39.0463 
    0.9995 	   48.2965 	    0.0000 	   45.0000 	   39.0883 
    1.0452 	   48.3170 	    0.0000 	   45.0000 	   39.1293 
    0.9232 	   48.3375 	    0.0000 	   45.0000 	   39.1704 
    1.0605 	   48.3585 	    0.0000 	   45.0000 	   39.2124 
    1.1063 	   48.3805 	    0.0000 	   45.0000 	   39.2564 
    1.0452 	   48.4025 	    0.0000 	   45.0000 	   39.3004 
    1.1063 	   48.4260 	    0.0000 	   45.0000 	   39.3474 
    1.1978 	   48.4490 	    0.0000 	   45.0000 	   39.3934 
    0.9842 	   48.4725 	    0.0000 	   45.0000 	   39.4404 
    1.1521 	   48.4950 	    0.0000 	   45.0000 	   39.4854 
    0.9537 	   48.5185 	    0.0000 	   45.0000 	   39.5324 
    1.0758 	   48.5415 	    0.0000 	   45.0000 	   39.5784 
    0.9384 	   48.5625 	    0.0000 	   45.0000 	   39.6204 
    0.7858 	   48.5845 	    0.0000 	   45.0000 	   39.6644 
    1.1978 	   48.6065 	    0.0000 	   45.0000 	   39.7084 
    0.9537 	   48.6295 	    0.0000 	   45.0000 	   39.7544 
    1.0605 	   48.6520 	    0.0000 	   45.0000 	   39.7994 
    1.1215 	   48.6750 	    0.0000 	   45.0000 	   39.8454 
    1.0605 	   48.6980 	    0.0000 	   45.0000 	   39.8914 
    0.9689 	   48.7210 	    0.0000 	   45.0000 	   39.9374 
    1.0910 	   48.7435 	    0.0000 	   45.0000 	   39.9824 
    1.0758 	   48.7665 	    0.0000 	   45.0000 	   40.0284 
    0.8164 	   48.7900 	    0.0000 	   45.0000 	   40.0754 
    1.1368 	   48.8105 	    0.0000 	   45.0000 	   40.1164 
    0.9079 	   48.8315 	    0.0000 	   45.0000 	   40.1584 
    1.0300 	   48.8525 	    0.0000 	   45.0000 	   40.2004 
    1.1673 	   48.8735 	    0.0000 	   45.0000 	   40.2424 
    1.1215 	   48.8940 	    0.0000 	   45.0000 	   40.2834 
    0.9384 	   48.9145 	    0.0000 	   45.0000 	   40.3244 
    1.1215 	   48.9345 	    0.0000 	   45.0000 	   40.3644 
    1.0910 	   48.9560 	    0.0000 	   45.0000 	   40.4074 
    1.0300 	   48.9765 	    0.0000 	   45.0000 	   40.4484 
    1.1215 	   48.9980 	    0.0000 	   45.0000 	   40.4914 
    0.8011 	   49.0220 	    0.0000 	   45.0000 	   40.5394 
    1.1673 	   49.0440 	    0.0000 	   45.0000 	   40.5834 
    1.1368 	   49.0685 	    0.0000 	   45.0000 	   40.6324 
    1.1521 	   49.0910 	    0.0000 	   45.0000 	   40.6774 
    1.0605 	   49.1145 	    0.0000 	   45.0000 	   40.7244 
    0.9995 	   49.1375 	    0.0000 	   45.0000 	   40.7704 
    1.0910 	   49.1610 	    0.0000 	   45.0000 	   40.8174 
    0.9842 	   49.1835 	    0.0000 	   45.0000 	   40.8624 
    1.3046 	   49.2075 	    0.0000 	   45.0000 	   40.9105 
    1.1978 	   49.2320 	    0.0000 	   45.0000 	   40.9595 
    1.1063 	   49.2560 	    0.0000 	   45.0000 	   41.0075 
    1.1826 	   49.2780 	    0.0000 	   45.0000 	   41.0515 
    1.1063 	   49.2990 	    0.0000 	   45.0000 	   41.0935 
    1.1673 	   49.3205 	    0.0000 	   45.0000 	   41.1365 
    1.1368 	   49.3440 	    0.0000 	   45.0000 	   41.1835 
    0.8011 	   49.3670 	    0.0000 	   45.0000 	   41.2295 
    1.0605 	   49.3905 	    0.0000 	   45.0000 	   41.2765 
    1.1215 	   49.4145 	    0.0000 	   45.0000 	   41.3245 
    1.1368 	   49.4370 	    0.0000 	   45.0000 	   41.3695 
    1.0605 	   49.4595 	    0.0000 	   45.0000 	   41.4145 
    0.9079 	   49.4815 	    0.0000 	   45.0000 	   41.4585 
    0.9232 	   49.5040 	    0.0000 	   45.0000 	   41.5035 
    1.2284 	   49.5260 	    0.0000 	   45.0000 	   41.5475 
    1.0452 	   49.5485 	    0.0000 	   45.0000 	   41.5925 
    1.2131 	   49.5705 	    0.0000 	   45.0000 	   41.6365 
    1.0452 	   49.5930 	    0.0000 	   45.0000 	   41.6815 
    1.2436 	   49.6155 	    0.0000 	   45.0000 	   41.7265 
    1.1063 	   49.6380 	    0.0000 	   45.0000 	   41.7715 
    1.0452 	   49.6600 	    0.0000 	   45.0000 	   41.8155 
    1.1063 	   49.6825 	    0.0000 	   45.0000 	   41.8605 
    1.1063 	   49.7055 	    0.0000 	   45.0000 	   41.9065 
    1.0910 	   49.7280 	    0.0000 	   45.0000 	   41.9515 
    1.1521 	   49.7515 	    0.0000 	   45.0000 	   41.9985 
    0.9995 	   49.7755 	    0.0000 	   45.0000 	   42.0465 
    1.2131 	   49.7990 	    0.0000 	   45.0000 	   42.0935 
    1.0758 	   49.8215 	    0.0000 	   45.0000 	   42.1385 
    1.1368 	   49.8435 	    0.0000 	   45.0000 	   42.1825 
    1.1063 	   49.8650 	    0.0000 	   45.0000 	   42.2255 
    1.0758 	   49.8850 	    0.0000 	   45.0000 	   42.2655 
    1.0605 	   49.9055 	    0.0000 	   45.0000 	   42.3065 
    1.0452 	   49.9265 	    0.0000 	   45.0000 	   42.3485 
    1.0452 	   49.9475 	    0.0000 	   45.0000 	   42.3905 
    1.1063 	   49.9675 	    0.0000 	   45.0000 	   42.4305 
    0.9842 	   49.9885 	    0.0000 	   45.0000 	   42.4725 
    0.7095 	   50.0090 	    0.0000 	   45.0000 	   42.5135 
    0.8164 	   50.0295 	    0.0000 	   45.0000 	   42.5545 
    1.0758 	   50.0530 	    0.0000 	   45.0000 	   42.6015 
    1.1063 	   50.0760 	    0.0000 	   45.0000 	   42.6476 
    1.0605 	   50.0990 	    0.0000 	   45.0000 	   42.6936 
    1.2131 	   50.1225 	    0.0000 	   45.0000 	   42.7406 
    1.2284 	   50.1450 	    0.0000 	   45.0000 	   42.7856 
    1.0147 	   50.1675 	    0.0000 	   45.0000 	   42.8306 
    1.1063 	   50.1905 	    0.0000 	   45.0000 	   42.8766 
    0.9995 	   50.2115 	    0.0000 	   45.0000 	   42.9186 
    1.0605 	   50.2320 	    0.0000 	   45.0000 	   42.9596 
    1.0910 	   50.2530 	    0.0000 	   45.0000 	   43.0016 
    0.8011 	   50.2755 	    0.0000 	   45.0000 	   43.0466 
    1.1673 	   50.2965 	    0.0000 	   45.0000 	   43.0886 
    1.2131 	   50.3175 	    0.0000 	   45.0000 	   43.1306 
    1.0910 	   50.3380 	    0.0000 	   45.0000 	   43.1716 
    1.0452 	   50.3595 	    0.0000 	   45.0000 	   43.2146 
    1.1063 	   50.3820 	    0.0000 	   45.0000 	   43.2596 
    1.1826 	   50.4045 	    0.0000 	   45.0000 	   43.3046 
    1.1215 	   50.4275 	    0.0000 	   45.0000 	   43.3506 
    1.0910 	   50.4495 	    0.0000 	   45.0000 	   43.3946 
    1.1215 	   50.4725 	    0.0000 	   45.0000 	   43.4406 
    1.1063 	   50.4945 	    0.0000 	   45.0000 	   43.4846 
    1.1368 	   50.5175 	    0.0000 	   45.0000 	   43.5306 
    1.2589 	   50.5410 	    0.0000 	   45.0000 	   43.5776 
    1.0452 	   50.5635 	    0.0000 	   45.0000 	   43.6226 
    1.1063 	   50.5860 	    0.0000 	   45.0000 	   43.6676 
    1.0910 	   50.6085 	    0.0000 	   45.0000 	   43.7126 
    1.1215 	   50.6310 	    0.0000 	   45.0000 	   43.7576 
    1.1521 	   50.6525 	    0.0000 	   45.0000 	   43.8006 
    1.0300 	   50.6755 	    0.0000 	   45.0000 	   43.8466 
    1.0300 	   50.6980 	    0.0000 	   45.0000 	   43.8916 
    1.0605 	   50.7210 	    0.0000 	   45.0000 	   43.9376 
    1.2589 	   50.7440 	    0.0000 	   45.0000 	   43.9836 
    0.8621 	   50.7670 	    0.0000 	   45.0000 	   44.0296 
    1.2436 	   50.7905 	    0.0000 	   45.0000 	   44.0766 
    1.0605 	   50.8130 	    0.0000 	   45.0000 	   44.1216 
    1.0605 	   50.8360 	    0.0000 	   45.0000 	   44.1676 
    1.0758 	   50.8590 	    0.0000 	   45.0000 	   44.2136 
    0.9689 	   50.8820 	    0.0000 	   45.0000 	   44.2596 
    0.9079 	   50.9050 	    0.0000 	   45.0000 	   44.3056 
    1.0605 	   50.9280 	    0.0000 	   45.0000 	   44.3517 
    0.9842 	   50.9505 	    0.0000 	   45.0000 	   44.3967 
    1.0147 	   50.9720 	    0.0000 	   45.0000 	   44.4397 
    0.9842 	   50.9940 	    0.0000 	   45.0000 	   44.4837 
    1.2284 	   51.0175 	    0.0000 	   45.0000 	   44.5307 
    0.9384 	   51.0405 	    0.0000 	   45.0000 	   44.5767 
    1.0758 	   51.0660 	    0.0000 	   45.0000 	   44.6277 
    1.0452 	   51.0875 	    0.0000 	   45.0000 	   44.6707 
    1.0758 	   51.1085 	    0.0000 	   45.0000 	   44.7127 
    0.9689 	   51.1295 	    0.0000 	   45.0000 	   44.7547 
    1.0300 	   51.1505 	    0.0000 	   45.0000 	   44.7967 
    1.2741 	   51.1710 	    0.0000 	   45.0000 	   44.8377 
    0.9995 	   51.1940 	    0.0000 	   45.0000 	   44.8837 
    1.0910 	   51.2160 	    0.0000 	   45.0000 	   44.9277 
    0.9995 	   51.2390 	    0.0000 	   45.0000 	   44.9737 
    1.1215 	   51.2625 	    0.0000 	   45.0000 	   45.0207 
    1.0605 	   51.2845 	    0.0000 	   45.0000 	   45.0647 
    1.0452 	   51.3060 	    0.0000 	   45.0000 	   45.1077 
    1.1978 	   51.3260 	    0.0000 	   45.0000 	   45.1477 
    0.7858 	   51.3470 	    0.0000 	   45.0000 	   45.1897 
    0.9232 	   51.3675 	    0.0000 	   45.0000 	   45.2307 
    1.1215 	   51.3880 	    0.0000 	   45.0000 	   45.2717 
    1.0147 	   51.4105 	    0.0000 	   45.0000 	   45.3167 
    1.1215 	   51.4310 	    0.0000 	   45.0000 	   45.3577 
    1.1521 	   51.4535 	    0.0000 	   45.0000 	   45.4027 
    1.0758 	   51.4765 	    0.0000 	   45.0000 	   45.4487 
    1.0910 	   51.5005 	    0.0000 	   45.0000 	   45.4967 
    1.0300 	   51.5245 	    0.0000 	   45.0000 	   45.5447 
    1.1063 	   51.5475 	    0.0000 	   45.0000 	   45.5907 
    1.1978 	   51.5695 	    0.0000 	   45.0000 	   45.6347 
    1.2131 	   51.5915 	    0.0000 	   45.0000 	   45.6787 
    1.2589 	   51.6125 	    0.0000 	   45.0000 	   45.7207 
    1.1673 	   51.6360 	    0.0000 	   45.0000 	   45.7677 
    1.1215 	   51.6585 	    0.0000 	   45.0000 	   45.8127 
    1.0758 	   51.6815 	    0.0000 	   45.0000 	   45.8587 
    1.0605 	   51.7065 	    0.0000 	   45.0000 	   45.9087 
    1.1215 	   51.7300 	    0.0000 	   45.0000 	   45.9557 
    1.1215 	   51.7530 	    0.0000 	   45.0000 	   46.0017 
    1.1368 	   51.7760 	    0.0000 	   45.0000 	   46.0477 
    1.3046 	   51.7990 	    0.0000 	   45.0000 	   46.0937 
    1.1978 	   51.8195 	    0.0000 	   45.0000 	   46.1348 
    1.1215 	   51.8425 	    0.0000 	   45.0000 	   46.1808 
    1.1978 	   51.8640 	    0.0000 	   45.0000 	   46.2238 
    1.2284 	   51.8845 	    0.0000 	   45.0000 	   46.2648 
    1.0910 	   51.9060 	    0.0000 	   45.0000 	   46.3078 
    1.2589 	   51.9265 	    0.0000 	   45.0000 	   46.3488 
    1.1215 	   51.9485 	    0.0000 	   45.0000 	   46.3928 
    1.2284 	   51.9715 	    0.0000 	   45.0000 	   46.4388 
    1.2589 	   51.9940 	    0.0000 	   45.0000 	   46.4838 
    1.3199 	   52.0165 	    0.0000 	   45.0000 	   46.5288 
    1.2131 	   52.0400 	    0.0000 	   45.0000 	   46.5758 
    1.1978 	   52.0645 	    0.0000 	   45.0000 	   46.6248 
    0.8316 	   52.0865 	    0.0000 	   45.0000 	   46.6688 
    1.1673 	   52.1100 	    0.0000 	   45.0000 	   46.7158 
    1.2284 	   52.1330 	    0.0000 	   45.0000 	   46.7618 
    1.0910 	   52.1570 	    0.0000 	   45.0000 	   46.8098 
    1.1978 	   52.1800 	    0.0000 	   45.0000 	   46.8558 
    1.0758 	   52.2020 	    0.0000 	   45.0000 	   46.8998 
    1.2436 	   52.2245 	    0.0000 	   45.0000 	   46.9448 
    1.1521 	   52.2475 	    0.0000 	   45.0000 	   46.9908 
    1.1063 	   52.2705 	    0.0000 	   45.0000 	   47.0368 
    1.1368 	   52.2925 	    0.0000 	   45.0000 	   47.0808 
    1.2741 	   52.3155 	    0.0000 	   45.0000 	   47.1268 
    1.0758 	   52.3390 	    0.0000 	   45.0000 	   47.1738 
    0.7401 	   52.3625 	    0.0000 	   45.0000 	   47.2208 
    1.1063 	   52.3835 	    0.0000 	   45.0000 	   47.2628 
    1.1063 	   52.4060 	    0.0000 	   45.0000 	   47.3078 
    1.0910 	   52.4285 	    0.0000 	   45.0000 	   47.3528 
    1.2284 	   52.4515 	    0.0000 	   45.0000 	   47.3988 
    1.1673 	   52.4740 	    0.0000 	   45.0000 	   47.4438 
    1.1063 	   52.4975 	    0.0000 	   45.0000 	   47.4908 
    1.0910 	   52.5205 	    0.0000 	   45.0000 	   47.5368 
    1.0605 	   52.5430 	    0.0000 	   45.0000 	   47.5818 
    1.1521 	   52.5660 	    0.0000 	   45.0000 	   47.6278 
    1.1978 	   52.5910 	    0.0000 	   45.0000 	   47.6778 
    1.1063 	   52.6120 	    0.0000 	   45.0000 	   47.7198 
    1.3046 	   52.6335 	    0.0000 	   45.0000 	   47.7628 
    1.0452 	   52.6545 	    0.0000 	   45.0000 	   47.8048 
    1.2436 	   52.6760 	    0.0000 	   45.0000 	   47.8478 
    1.0452 	   52.6990 	    0.0000 	   45.0000 	   47.8939 
    1.1215 	   52.7210 	    0.0000 	   45.0000 	   47.9379 
    1.1673 	   52.7455 	    0.0000 	   45.0000 	   47.9869 
    1.1063 	   52.7675 	    0.0000 	   45.0000 	   48.0309 
    1.1063 	   52.7900 	    0.0000 	   45.0000 	   48.0759 
    1.2436 	   52.8130 	    0.0000 	   45.0000 	   48.1219 
    1.1673 	   52.8345 	    0.0000 	   45.0000 	   48.1649 
    1.1978 	   52.8575 	    0.0000 	   45.0000 	   48.2109 
    1.1978 	   52.8810 	    0.0000 	   45.0000 	   48.2579 
    1.3504 	   52.9040 	    0.0000 	   45.0000 	   48.3039 
    1.2589 	   52.9270 	    0.0000 	   45.0000 	   48.3499 
    1.0300 	   52.9500 	    0.0000 	   45.0000 	   48.3959 
    1.0758 	   52.9720 	    0.0000 	   45.0000 	   48.4399 
    1.2741 	   52.9950 	    0.0000 	   45.0000 	   48.4859 
    1.0758 	   53.0165 	    0.0000 	   45.0000 	   48.5289 
    1.3657 	   53.0400 	    0.0000 	   45.0000 	   48.5759 
    1.1978 	   53.0655 	    0.0000 	   45.0000 	   48.6269 
    0.8774 	   53.0880 	    0.0000 	   45.0000 	   48.6719 
    1.1368 	   53.1105 	    0.0000 	   45.0000 	   48.7169 
    1.0910 	   53.1340 	    0.0000 	   45.0000 	   48.7639 
    1.0758 	   53.1565 	    0.0000 	   45.0000 	   48.8089 
    1.0910 	   53.1800 	    0.0000 	   45.0000 	   48.8559 
    1.0452 	   53.2015 	    0.0000 	   45.0000 	   48.8989 
    0.8927 	   53.2245 	    0.0000 	   45.0000 	   48.9449 
    0.9995 	   53.2470 	    0.0000 	   45.0000 	   48.9899 
    1.1215 	   53.2705 	    0.0000 	   45.0000 	   49.0369 
    1.1368 	   53.2940 	    0.0000 	   45.0000 	   49.0839 
    0.9537 	   53.3175 	    0.0000 	   45.0000 	   49.1309 
    1.0758 	   53.3410 	    0.0000 	   45.0000 	   49.1779 
    0.9842 	   53.3640 	    0.0000 	   45.0000 	   49.2239 
    1.1368 	   53.3860 	    0.0000 	   45.0000 	   49.2679 
    1.2131 	   53.4100 	    0.0000 	   45.0000 	   49.3159 
    1.1063 	   53.4330 	    0.0000 	   45.0000 	   49.3619 
    1.1368 	   53.4555 	    0.0000 	   45.0000 	   49.4069 
    1.0300 	   53.4775 	    0.0000 	   45.0000 	   49.4509 
    1.0147 	   53.5005 	    0.0000 	   45.0000 	   49.4969 
    1.0910 	   53.5240 	    0.0000 	   45.0000 	   49.5439 
    1.1063 	   53.5465 	    0.0000 	   45.0000 	   49.5889 
    1.1063 	   53.5695 	    0.0000 	   45.0000 	   49.6350 
    1.2436 	   53.5920 	    0.0000 	   45.0000 	   49.6800 
    1.2284 	   53.6145 	    0.0000 	   45.0000 	   49.7250 
    1.1673 	   53.6365 	    0.0000 	   45.0000 	   49.7690 
    1.1368 	   53.6585 	    0.0000 	   45.0000 	   49.8130 
    1.1978 	   53.6815 	    0.0000 	   45.0000 	   49.8590 
    1.1978 	   53.7025 	    0.0000 	   45.0000 	   49.9010 
    1.1826 	   53.7235 	    0.0000 	   45.0000 	   49.9430 
    1.0300 	   53.7445 	    0.0000 	   45.0000 	   49.9850 
    1.1978 	   53.7655 	    0.0000 	   45.0000 	   50.0270 
    1.1673 	   53.7860 	    0.0000 	   45.0000 	   50.0680 
    1.1826 	   53.8070 	    0.0000 	   45.0000 	   50.1100 
    1.1215 	   53.8275 	    0.0000 	   45.0000 	   50.1510 
    0.9995 	   53.8490 	    0.0000 	   45.0000 	   50.1940 
    1.1215 	   53.8700 	    0.0000 	   45.0000 	   50.2360 
    1.2894 	   53.8910 	    0.0000 	   45.0000 	   50.2780 
    1.2589 	   53.9120 	    0.0000 	   45.0000 	   50.3200 
    1.2436 	   53.9330 	    0.0000 	   45.0000 	   50.3620 
    1.1978 	   53.9535 	    0.0000 	   45.0000 	   50.4030 
    1.0300 	   53.9745 	    0.0000 	   45.0000 	   50.4450 
    1.3657 	   53.9950 	    0.0000 	   45.0000 	   50.4860 
    1.1826 	   54.0160 	    0.0000 	   45.0000 	   50.5280 
    1.0758 	   54.0370 	    0.0000 	   45.0000 	   50.5700 
    1.1368 	   54.0600 	    0.0000 	   45.0000 	   50.6160 
    1.1063 	   54.0825 	    0.0000 	   45.0000 	   50.6600 
    1.1368 	   54.1030 	    0.0000 	   45.0000 	   50.7010 
    1.2894 	   54.1245 	    0.0000 	   45.0000 	   50.7440 
    1.0758 	   54.1450 	    0.0000 	   45.0000 	   50.7850 
    1.2436 	   54.1670 	    0.0000 	   45.0000 	   50.8290 
    1.2284 	   54.1890 	    0.0000 	   45.0000 	   50.8730 
    1.1521 	   54.2125 	    0.0000 	   45.0000 	   50.9200 
    1.0452 	   54.2355 	    0.0000 	   45.0000 	   50.9660 
    1.3046 	   54.2580 	    0.0000 	   45.0000 	   51.0110 
    1.1673 	   54.2785 	    0.0000 	   45.0000 	   51.0520 
    1.1215 	   54.2995 	    0.0000 	   45.0000 	   51.0940 
    1.1215 	   54.3205 	    0.0000 	   45.0000 	   51.1360 
    1.2589 	   54.3420 	    0.0000 	   45.0000 	   51.1790 
    1.1673 	   54.3630 	    0.0000 	   45.0000 	   51.2210 
    1.1368 	   54.3835 	    0.0000 	   45.0000 	   51.2620 
    1.2741 	   54.4045 	    0.0000 	   45.0000 	   51.3040 
    1.1215 	   54.4255 	    0.0000 	   45.0000 	   51.3461 
    0.9842 	   54.4465 	    0.0000 	   45.0000 	   51.3881 
    0.9842 	   54.4680 	    0.0000 	   45.0000 	   51.4311 
    1.0300 	   54.4890 	    0.0000 	   45.0000 	   51.4731 
    1.0758 	   54.5095 	    0.0000 	   45.0000 	   51.5141 
    1.1978 	   54.5305 	    0.0000 	   45.0000 	   51.5561 
    1.0910 	   54.5515 	    0.0000 	   45.0000 	   51.5981 
    1.0910 	   54.5720 	    0.0000 	   45.0000 	   51.6391 
    1.0147 	   54.5930 	    0.0000 	   45.0000 	   51.6811 
    1.1673 	   54.6140 	    0.0000 	   45.0000 	   51.7231 
    1.0300 	   54.6350 	    0.0000 	   45.0000 	   51.7651 
    1.1063 	   54.6560 	    0.0000 	   45.0000 	   51.8071 
    1.1063 	   54.6770 	    0.0000 	   45.0000 	   51.8491 
    1.0910 	   54.6985 	    0.0000 	   45.0000 	   51.8921 
    1.1826 	   54.7195 	    0.0000 	   45.0000 	   51.9341 
    0.9842 	   54.7410 	    0.0000 	   45.0000 	   51.9771 
    1.1215 	   54.7620 	    0.0000 	   45.0000 	   52.0191 
    0.9537 	   54.7830 	    0.0000 	   45.0000 	   52.0611 
    0.8621 	   54.8040 	    0.0000 	   45.0000 	   52.1031 
    1.0758 	   54.8250 	    0.0000 	   45.0000 	   52.1451 
    1.1826 	   54.8460 	    0.0000 	   45.0000 	   52.1871 
    1.1368 	   54.8675 	    0.0000 	   45.0000 	   52.2301 
    1.0452 	   54.8905 	    0.0000 	   45.0000 	   52.2761 
    1.1063 	   54.9130 	    0.0000 	   45.0000 	   52.3211 
    1.1215 	   54.9360 	    0.0000 	   45.0000 	   52.3671 
    1.1826 	   54.9595 	    0.0000 	   45.0000 	   52.4141 
    1.1521 	   54.9835 	    0.0000 	   45.0000 	   52.4621 
    1.1063 	   55.0070 	    0.0000 	   45.0000 	   52.5091 
    1.0758 	   55.0290 	    0.0000 	   45.0000 	   52.5531 
    1.1215 	   55.0545 	    0.0000 	   45.0000 	   52.6041 
    0.8469 	   55.0770 	    0.0000 	   45.0000 	   52.6491 
    1.0605 	   55.1005 	    0.0000 	   45.0000 	   52.6961 
    1.1978 	   55.1235 	    0.0000 	   45.0000 	   52.7421 
    1.1368 	   55.1470 	    0.0000 	   45.0000 	   52.7891 
    1.1215 	   55.1685 	    0.0000 	   45.0000 	   52.8321 
    1.0452 	   55.1900 	    0.0000 	   45.0000 	   52.8751 
    1.3046 	   55.2110 	    0.0000 	   45.0000 	   52.9171 
    1.1673 	   55.2330 	    0.0000 	   45.0000 	   52.9611 
    0.9995 	   55.2535 	    0.0000 	   45.0000 	   53.0021 
    1.1521 	   55.2750 	    0.0000 	   45.0000 	   53.0451 
    1.1673 	   55.2965 	    0.0000 	   45.0000 	   53.0882 
    1.0605 	   55.3180 	    0.0000 	   45.0000 	   53.1311 
    1.2436 	   55.3410 	    0.0000 	   45.0000 	   53.1772 
    1.1368 	   55.3625 	    0.0000 	   45.0000 	   53.2202 
    1.1368 	   55.3835 	    0.0000 	   45.0000 	   53.2622 
    1.2894 	   55.4045 	    0.0000 	   45.0000 	   53.3042 
    1.1521 	   55.4255 	    0.0000 	   45.0000 	   53.3462 
    1.0758 	   55.4465 	    0.0000 	   45.0000 	   53.3882 
    1.1521 	   55.4675 	    0.0000 	   45.0000 	   53.4302 
    1.2284 	   55.4890 	    0.0000 	   45.0000 	   53.4732 
    1.0605 	   55.5100 	    0.0000 	   45.0000 	   53.5152 
    1.0758 	   55.5305 	    0.0000 	   45.0000 	   53.5562 
    1.1063 	   55.5515 	    0.0000 	   45.0000 	   53.5982 
    0.8011 	   55.5725 	    0.0000 	   45.0000 	   53.6402 
    1.0910 	   55.5950 	    0.0000 	   45.0000 	   53.6852 
    1.2284 	   55.6165 	    0.0000 	   45.0000 	   53.7282 
    1.0910 	   55.6390 	    0.0000 	   45.0000 	   53.7732 
    1.1215 	   55.6610 	    0.0000 	   45.0000 	   53.8172 
    1.0910 	   55.6820 	    0.0000 	   45.0000 	   53.8592 
    1.0452 	   55.7040 	    0.0000 	   45.0000 	   53.9032 
    1.1215 	   55.7250 	    0.0000 	   45.0000 	   53.9452 
    0.8621 	   55.7455 	    0.0000 	   45.0000 	   53.9862 
    1.0758 	   55.7670 	    0.0000 	   45.0000 	   54.0292 
    1.0452 	   55.7885 	    0.0000 	   45.0000 	   54.0722 
    1.4420 	   55.8095 	    0.0000 	   45.0000 	   54.1142 
    1.1063 	   55.8310 	    0.0000 	   45.0000 	   54.1572 
    0.7706 	   55.8530 	    0.0000 	   45.0000 	   54.2012 
    1.1215 	   55.8775 	    0.0000 	   45.0000 	   54.2502 
    1.1368 	   55.8985 	    0.0000 	   45.0000 	   54.2922 
    1.1063 	   55.9190 	    0.0000 	   45.0000 	   54.3332 
    1.2894 	   55.9405 	    0.0000 	   45.0000 	   54.3762 
    1.2436 	   55.9615 	    0.0000 	   45.0000 	   54.4182 
    1.1826 	   55.9825 	    0.0000 	   45.0000 	   54.4602 
    1.1978 	   56.0035 	    0.0000 	   45.0000 	   54.5022 
    1.1521 	   56.0250 	    0.0000 	   45.0000 	   54.5452 
    1.1215 	   56.0475 	    0.0000 	   45.0000 	   54.5902 
    1.1978 	   56.0685 	    0.0000 	   45.0000 	   54.6322 
    1.1673 	   56.0890 	    0.0000 	   45.0000 	   54.6732 
    1.1368 	   56.1095 	    0.0000 	   45.0000 	   54.7142 
    1.0605 	   56.1305 	    0.0000 	   45.0000 	   54.7562 
    1.1063 	   56.1515 	    0.0000 	   45.0000 	   54.7982 
    1.3046 	   56.1735 	    0.0000 	   45.0000 	   54.8422 
    1.2131 	   56.1945 	    0.0000 	   45.0000 	   54.8843 
    1.2284 	   56.2155 	    0.0000 	   45.0000 	   54.9263 
    1.2284 	   56.2360 	    0.0000 	   45.0000 	   54.9673 
    1.1673 	   56.2575 	    0.0000 	   45.0000 	   55.0103 
    1.2741 	   56.2785 	    0.0000 	   45.0000 	   55.0523 
    1.1978 	   56.3000 	    0.0000 	   45.0000 	   55.0953 
    1.1368 	   56.3210 	    0.0000 	   45.0000 	   55.1373 
    1.1063 	   56.3425 	    0.0000 	   45.0000 	   55.1803 
    1.3352 	   56.3635 	    0.0000 	   45.0000 	   55.2223 
    1.2131 	   56.3850 	    0.0000 	   45.0000 	   55.2653 
    1.1063 	   56.4060 	    0.0000 	   45.0000 	   55.3073 
    0.8469 	   56.4275 	    0.0000 	   45.0000 	   55.3503 
    1.0758 	   56.4485 	    0.0000 	   45.0000 	   55.3923 
    0.7858 	   56.4695 	    0.0000 	   45.0000 	   55.4343 
    1.1215 	   56.4905 	    0.0000 	   45.0000 	   55.4763 
    1.0910 	   56.5115 	    0.0000 	   45.0000 	   55.5183 
    1.2284 	   56.5320 	    0.0000 	   45.0000 	   55.5593 
    1.0452 	   56.5530 	    0.0000 	   45.0000 	   55.6013 
    1.1673 	   56.5815 	    0.0000 	   45.0000 	   55.6583 
    1.2894 	   56.6000 	    0.0000 	   45.0000 	   55.6953 
    1.3657 	   56.6230 	    0.0000 	   45.0000 	   55.7413 
    1.1063 	   56.6460 	    0.0000 	   45.0000 	   55.7873 
    1.1673 	   56.6675 	    0.0000 	   45.0000 	   55.8303 
    1.1521 	   56.6890 	    0.0000 	   45.0000 	   55.8733 
    1.2436 	   56.7100 	    0.0000 	   45.0000 	   55.9153 
    1.2284 	   56.7305 	    0.0000 	   45.0000 	   55.9563 
    1.1826 	   56.7530 	    0.0000 	   45.0000 	   56.0013 
    1.2589 	   56.7735 	    0.0000 	   45.0000 	   56.0423 
    1.1978 	   56.7950 	    0.0000 	   45.0000 	   56.0853 
    1.0605 	   56.8160 	    0.0000 	   45.0000 	   56.1273 
    1.0910 	   56.8370 	    0.0000 	   45.0000 	   56.1693 
    1.1063 	   56.8605 	    0.0000 	   45.0000 	   56.2163 
    1.1368 	   56.8840 	    0.0000 	   45.0000 	   56.2633 
    1.2284 	   56.9065 	    0.0000 	   45.0000 	   56.3083 
    1.2894 	   56.9300 	    0.0000 	   45.0000 	   56.3553 
    1.1826 	   56.9535 	    0.0000 	   45.0000 	   56.4023 
    1.3199 	   56.9765 	    0.0000 	   45.0000 	   56.4483 
    1.3657 	   56.9995 	    0.0000 	   45.0000 	   56.4943 
    1.2284 	   57.0205 	    0.0000 	   45.0000 	   56.5363 
    1.2131 	   57.0415 	    0.0000 	   45.0000 	   56.5783 
    1.2436 	   57.0625 	    0.0000 	   45.0000 	   56.6203 
    1.1368 	   57.0840 	    0.0000 	   45.0000 	   56.6634 
    1.1673 	   57.1050 	    0.0000 	   45.0000 	   56.7054 
    1.2589 	   57.1270 	    0.0000 	   45.0000 	   56.7494 
    1.0605 	   57.1475 	    0.0000 	   45.0000 	   56.7904 
    1.3046 	   57.1700 	    0.0000 	   45.0000 	   56.8354 
    1.1673 	   57.1935 	    0.0000 	   45.0000 	   56.8824 
    1.1063 	   57.2165 	    0.0000 	   45.0000 	   56.9284 
    1.2894 	   57.2400 	    0.0000 	   45.0000 	   56.9754 
    1.0758 	   57.2630 	    0.0000 	   45.0000 	   57.0214 
    1.0910 	   57.2865 	    0.0000 	   45.0000 	   57.0684 
    1.3657 	   57.3105 	    0.0000 	   45.0000 	   57.1164 
    1.1063 	   57.3315 	    0.0000 	   45.0000 	   57.1584 
    1.0605 	   57.3525 	    0.0000 	   45.0000 	   57.2004 
    1.3504 	   57.3735 	    0.0000 	   45.0000 	   57.2424 
    1.2131 	   57.3955 	    0.0000 	   45.0000 	   57.2864 
    1.0758 	   57.4170 	    0.0000 	   45.0000 	   57.3294 
    0.9537 	   57.4380 	    0.0000 	   45.0000 	   57.3714 
    1.1673 	   57.4595 	    0.0000 	   45.0000 	   57.4144 
    1.2284 	   57.4810 	    0.0000 	   45.0000 	   57.4574 
    1.2589 	   57.5020 	    0.0000 	   45.0000 	   57.4994 
    1.1978 	   57.5230 	    0.0000 	   45.0000 	   57.5414 
    1.1673 	   57.5445 	    0.0000 	   45.0000 	   57.5844 
    1.2284 	   57.5650 	    0.0000 	   45.0000 	   57.6254 
    1.1673 	   57.5870 	    0.0000 	   45.0000 	   57.6694 
    1.2436 	   57.6080 	    0.0000 	   45.0000 	   57.7114 
    1.1368 	   57.6290 	    0.0000 	   45.0000 	   57.7534 
    1.1521 	   57.6515 	    0.0000 	   45.0000 	   57.7984 
    0.9689 	   57.6720 	    0.0000 	   45.0000 	   57.8394 
    1.2741 	   57.6935 	    0.0000 	   45.0000 	   57.8824 
    1.1215 	   57.7140 	    0.0000 	   45.0000 	   57.9234 
    1.0605 	   57.7355 	    0.0000 	   45.0000 	   57.9664 
    1.1978 	   57.7565 	    0.0000 	   45.0000 	   58.0084 
    1.1215 	   57.7775 	    0.0000 	   45.0000 	   58.0504 
    1.1521 	   57.7985 	    0.0000 	   45.0000 	   58.0924 
    1.3352 	   57.8210 	    0.0000 	   45.0000 	   58.1374 
    1.1063 	   57.8420 	    0.0000 	   45.0000 	   58.1794 
    1.1521 	   57.8635 	    0.0000 	   45.0000 	   58.2224 
    1.1673 	   57.8855 	    0.0000 	   45.0000 	   58.2664 
    1.1368 	   57.9065 	    0.0000 	   45.0000 	   58.3084 
    1.1521 	   57.9300 	    0.0000 	   45.0000 	   58.3554 
    1.3504 	   57.9540 	    0.0000 	   45.0000 	   58.4035 
    1.1673 	   57.9795 	    0.0000 	   45.0000 	   58.4545 
    0.9232 	   58.0040 	    0.0000 	   45.0000 	   58.5035 
    1.2589 	   58.0275 	    0.0000 	   45.0000 	   58.5505 
    1.2436 	   58.0520 	    0.0000 	   45.0000 	   58.5995 
    1.4115 	   58.0755 	    0.0000 	   45.0000 	   58.6465 
    1.1826 	   58.0980 	    0.0000 	   45.0000 	   58.6915 
    1.1521 	   58.1205 	    0.0000 	   45.0000 	   58.7365 
    1.1673 	   58.1415 	    0.0000 	   45.0000 	   58.7785 
    1.2131 	   58.1625 	    0.0000 	   45.0000 	   58.8205 
    1.1673 	   58.1845 	    0.0000 	   45.0000 	   58.8645 
    1.2284 	   58.2060 	    0.0000 	   45.0000 	   58.9075 
    1.2436 	   58.2270 	    0.0000 	   45.0000 	   58.9495 
    1.2589 	   58.2480 	    0.0000 	   45.0000 	   58.9915 
    1.1826 	   58.2695 	    0.0000 	   45.0000 	   59.0345 
    1.0758 	   58.2910 	    0.0000 	   45.0000 	   59.0775 
    1.3962 	   58.3115 	    0.0000 	   45.0000 	   59.1185 
    1.2131 	   58.3325 	    0.0000 	   45.0000 	   59.1605 
    1.1826 	   58.3535 	    0.0000 	   45.0000 	   59.2025 
    1.1368 	   58.3750 	    0.0000 	   45.0000 	   59.2455 
    1.2131 	   58.3960 	    0.0000 	   45.0000 	   59.2875 
    1.2131 	   58.4170 	    0.0000 	   45.0000 	   59.3295 
    1.1978 	   58.4380 	    0.0000 	   45.0000 	   59.3715 
    1.3962 	   58.4610 	    0.0000 	   45.0000 	   59.4175 
    1.1215 	   58.4820 	    0.0000 	   45.0000 	   59.4595 
    1.3962 	   58.5035 	    0.0000 	   45.0000 	   59.5025 
    1.2284 	   58.5245 	    0.0000 	   45.0000 	   59.5445 
    1.2284 	   58.5455 	    0.0000 	   45.0000 	   59.5865 
    1.1826 	   58.5665 	    0.0000 	   45.0000 	   59.6285 
    1.2284 	   58.5880 	    0.0000 	   45.0000 	   59.6715 
    1.1826 	   58.6095 	    0.0000 	   45.0000 	   59.7145 
    1.2894 	   58.6310 	    0.0000 	   45.0000 	   59.7575 
    1.1826 	   58.6550 	    0.0000 	   45.0000 	   59.8055 
    1.2589 	   58.6780 	    0.0000 	   45.0000 	   59.8515 
    1.3199 	   58.7015 	    0.0000 	   45.0000 	   59.8985 
    1.1063 	   58.7240 	    0.0000 	   45.0000 	   59.9435 
    1.3504 	   58.7455 	    0.0000 	   45.0000 	   59.9865 
    1.2589 	   58.7675 	    0.0000 	   46.0000 	    0.0305 
    1.1063 	   58.7885 	    0.0000 	   46.0000 	    0.0725 
    1.1978 	   58.8105 	    0.0000 	   46.0000 	    0.1166 
    1.1673 	   58.8315 	    0.0000 	   46.0000 	    0.1586 
    1.3809 	   58.8535 	    0.0000 	   46.0000 	    0.2026 
    1.2436 	   58.8750 	    0.0000 	   46.0000 	    0.2456 
    1.1673 	   58.8960 	    0.0000 	   46.0000 	    0.2876 
    1.2284 	   58.9170 	    0.0000 	   46.0000 	    0.3296 
    1.0758 	   58.9380 	    0.0000 	   46.0000 	    0.3716 
    1.0452 	   58.9600 	    0.0000 	   46.0000 	    0.4156 
    1.1368 	   58.9810 	    0.0000 	   46.0000 	    0.4576 
    1.0452 	   59.0045 	    0.0000 	   46.0000 	    0.5046 
    1.1826 	   59.0285 	    0.0000 	   46.0000 	    0.5526 
    1.1215 	   59.0510 	    0.0000 	   46.0000 	    0.5976 
    1.0605 	   59.0740 	    0.0000 	   46.0000 	    0.6436 
    1.1215 	   59.0960 	    0.0000 	   46.0000 	    0.6876 
    1.1215 	   59.1185 	    0.0000 	   46.0000 	    0.7326 
    1.1063 	   59.1420 	    0.0000 	   46.0000 	    0.7796 
    1.1826 	   59.1650 	    0.0000 	   46.0000 	    0.8256 
    1.1978 	   59.1890 	    0.0000 	   46.0000 	    0.8736 
    1.2284 	   59.2130 	    0.0000 	   46.0000 	    0.9216 
    1.1826 	   59.2375 	    0.0000 	   46.0000 	    0.9706 
    1.1978 	   59.2610 	    0.0000 	   46.0000 	    1.0176 
    1.1063 	   59.2850 	    0.0000 	   46.0000 	    1.0656 
    1.2894 	   59.3085 	    0.0000 	   46.0000 	    1.1126 
    0.9079 	   59.3320 	    0.0000 	   46.0000 	    1.1596 
    1.2284 	   59.3565 	    0.0000 	   46.0000 	    1.2086 
    1.2284 	   59.3800 	    0.0000 	   46.0000 	    1.2556 
    1.1978 	   59.4040 	    0.0000 	   46.0000 	    1.3036 
    1.2436 	   59.4275 	    0.0000 	   46.0000 	    1.3506 
    1.0758 	   59.4525 	    0.0000 	   46.0000 	    1.4006 
    1.0605 	   59.4760 	    0.0000 	   46.0000 	    1.4476 
    1.2741 	   59.4995 	    0.0000 	   46.0000 	    1.4946 
    1.2284 	   59.5215 	    0.0000 	   46.0000 	    1.5386 
    1.2589 	   59.5435 	    0.0000 	   46.0000 	    1.5826 
    1.2436 	   59.5645 	    0.0000 	   46.0000 	    1.6246 
    1.2589 	   59.5865 	    0.0000 	   46.0000 	    1.6686 
    1.1368 	   59.6085 	    0.0000 	   46.0000 	    1.7126 
    1.1978 	   59.6300 	    0.0000 	   46.0000 	    1.7556 
    1.2741 	   59.6515 	    0.0000 	   46.0000 	    1.7986 
    1.1673 	   59.6725 	    0.0000 	   46.0000 	    1.8406 
    1.3199 	   59.6955 	    0.0000 	   46.0000 	    1.8867 
    1.3809 	   59.7190 	    0.0000 	   46.0000 	    1.9337 
    1.1368 	   59.7415 	    0.0000 	   46.0000 	    1.9787 
    1.1826 	   59.7640 	    0.0000 	   46.0000 	    2.0237 
    1.2284 	   59.7860 	    0.0000 	   46.0000 	    2.0677 
    1.1368 	   59.8075 	    0.0000 	   46.0000 	    2.1107 
    1.3657 	   59.8305 	    0.0000 	   46.0000 	    2.1567 
    0.9232 	   59.8535 	    0.0000 	   46.0000 	    2.2027 
    1.1368 	   59.8780 	    0.0000 	   46.0000 	    2.2517 
    1.3352 	   59.9020 	    0.0000 	   46.0000 	    2.2997 
    1.2131 	   59.9250 	    0.0000 	   46.0000 	    2.3457 
    1.2284 	   59.9490 	    0.0000 	   46.0000 	    2.3937 
    1.2131 	   59.9735 	    0.0000 	   46.0000 	    2.4427 
