Thayer School of Engineering        Instron 4442 Mechanical Testing System
7/5/2018 7:56:27 AM

  Force (N)	Extension (mm)	Not Used	Not Used	Not Used	     Hour	    Minute	    Second
    0.3281 	    0.5105 	    7.0000 	   57.0000 	    4.0999 
    0.5112 	    0.5260 	    7.0000 	   57.0000 	    4.1309 
    0.5875 	    0.5590 	    7.0000 	   57.0000 	    4.1969 
    0.5264 	    0.5885 	    7.0000 	   57.0000 	    4.2559 
    0.5264 	    0.6155 	    7.0000 	   57.0000 	    4.3099 
    0.5264 	    0.6405 	    7.0000 	   57.0000 	    4.3599 
    0.2823 	    0.6550 	    7.0000 	   57.0000 	    4.3889 
    0.4959 	    0.6690 	    7.0000 	   57.0000 	    4.4169 
    0.4501 	    0.6970 	    7.0000 	   57.0000 	    4.4729 
    0.4959 	    0.7220 	    7.0000 	   57.0000 	    4.5229 
    0.3433 	    0.7520 	    7.0000 	   57.0000 	    4.5829 
    0.4959 	    0.7805 	    7.0000 	   57.0000 	    4.6399 
    0.4501 	    0.8055 	    7.0000 	   57.0000 	    4.6899 
    0.4501 	    0.8340 	    7.0000 	   57.0000 	    4.7469 
    0.6332 	    0.8595 	    7.0000 	   57.0000 	    4.7979 
    0.5722 	    0.8735 	    7.0000 	   57.0000 	    4.8259 
    0.4501 	    0.9010 	    7.0000 	   57.0000 	    4.8810 
    0.5722 	    0.9170 	    7.0000 	   57.0000 	    4.9130 
    0.4654 	    0.9455 	    7.0000 	   57.0000 	    4.9700 
    0.5417 	    0.9705 	    7.0000 	   57.0000 	    5.0200 
    0.4044 	    0.9950 	    7.0000 	   57.0000 	    5.0690 
    0.4807 	    1.0100 	    7.0000 	   57.0000 	    5.0990 
    0.3738 	    1.0375 	    7.0000 	   57.0000 	    5.1540 
    0.4654 	    1.0640 	    7.0000 	   57.0000 	    5.2070 
    0.4501 	    1.0880 	    7.0000 	   57.0000 	    5.2550 
    0.3891 	    1.1130 	    7.0000 	   57.0000 	    5.3050 
    0.4807 	    1.1380 	    7.0000 	   57.0000 	    5.3550 
    0.4349 	    1.1630 	    7.0000 	   57.0000 	    5.4050 
    0.4654 	    1.1875 	    7.0000 	   57.0000 	    5.4540 
    0.4807 	    1.2120 	    7.0000 	   57.0000 	    5.5030 
    0.5264 	    1.2395 	    7.0000 	   57.0000 	    5.5580 
    0.4044 	    1.2540 	    7.0000 	   57.0000 	    5.5870 
    0.6027 	    1.2685 	    7.0000 	   57.0000 	    5.6160 
    0.4196 	    1.2975 	    7.0000 	   57.0000 	    5.6740 
    0.4807 	    1.3225 	    7.0000 	   57.0000 	    5.7240 
    0.4654 	    1.3480 	    7.0000 	   57.0000 	    5.7750 
    0.4959 	    1.3715 	    7.0000 	   57.0000 	    5.8220 
    0.4044 	    1.3850 	    7.0000 	   57.0000 	    5.8490 
    0.2365 	    1.3990 	    7.0000 	   57.0000 	    5.8770 
    0.4501 	    1.4270 	    7.0000 	   57.0000 	    5.9330 
    0.4349 	    1.4515 	    7.0000 	   57.0000 	    5.9820 
    0.4654 	    1.4755 	    7.0000 	   57.0000 	    6.0300 
    0.4807 	    1.5005 	    7.0000 	   57.0000 	    6.0800 
    0.6638 	    1.5250 	    7.0000 	   57.0000 	    6.1290 
    0.5264 	    1.5390 	    7.0000 	   57.0000 	    6.1570 
    0.3586 	    1.5650 	    7.0000 	   57.0000 	    6.2090 
    0.5417 	    1.5800 	    7.0000 	   57.0000 	    6.2390 
    0.4654 	    1.6065 	    7.0000 	   57.0000 	    6.2920 
    0.5112 	    1.6215 	    7.0000 	   57.0000 	    6.3220 
    0.4654 	    1.6350 	    7.0000 	   57.0000 	    6.3490 
    0.3586 	    1.6485 	    7.0000 	   57.0000 	    6.3760 
    0.4959 	    1.6630 	    7.0000 	   57.0000 	    6.4050 
    0.6180 	    1.6800 	    7.0000 	   57.0000 	    6.4390 
    0.4349 	    1.6960 	    7.0000 	   57.0000 	    6.4710 
    0.5417 	    1.7130 	    7.0000 	   57.0000 	    6.5050 
    0.4349 	    1.7295 	    7.0000 	   57.0000 	    6.5380 
    0.5875 	    1.7450 	    7.0000 	   57.0000 	    6.5690 
    0.4654 	    1.7605 	    7.0000 	   57.0000 	    6.6000 
    0.4501 	    1.7755 	    7.0000 	   57.0000 	    6.6301 
    0.1755 	    1.7900 	    7.0000 	   57.0000 	    6.6591 
    0.5417 	    1.8045 	    7.0000 	   57.0000 	    6.6881 
    0.4807 	    1.8325 	    7.0000 	   57.0000 	    6.7441 
    0.4654 	    1.8465 	    7.0000 	   57.0000 	    6.7721 
    0.4196 	    1.8610 	    7.0000 	   57.0000 	    6.8011 
   -0.0381 	    1.8760 	    7.0000 	   57.0000 	    6.8311 
    0.4044 	    1.8910 	    7.0000 	   57.0000 	    6.8611 
    0.5722 	    1.9235 	    7.0000 	   57.0000 	    6.9261 
    0.4959 	    1.9405 	    7.0000 	   57.0000 	    6.9601 
    0.5417 	    1.9570 	    7.0000 	   57.0000 	    6.9931 
    0.4501 	    1.9725 	    7.0000 	   57.0000 	    7.0241 
    0.4807 	    1.9900 	    7.0000 	   57.0000 	    7.0591 
    0.5112 	    2.0050 	    7.0000 	   57.0000 	    7.0891 
    0.4501 	    2.0205 	    7.0000 	   57.0000 	    7.1201 
    0.5875 	    2.0365 	    7.0000 	   57.0000 	    7.1521 
    0.4501 	    2.0530 	    7.0000 	   57.0000 	    7.1851 
    0.3128 	    2.0685 	    7.0000 	   57.0000 	    7.2161 
    0.6027 	    2.0840 	    7.0000 	   57.0000 	    7.2471 
    0.4044 	    2.1000 	    7.0000 	   57.0000 	    7.2791 
    0.5570 	    2.1165 	    7.0000 	   57.0000 	    7.3111 
    0.3281 	    2.1325 	    7.0000 	   57.0000 	    7.3441 
    0.4654 	    2.1465 	    7.0000 	   57.0000 	    7.3721 
    0.4349 	    2.1635 	    7.0000 	   57.0000 	    7.4061 
    0.4807 	    2.1790 	    7.0000 	   57.0000 	    7.4371 
    0.5722 	    2.1960 	    7.0000 	   57.0000 	    7.4711 
    0.1755 	    2.2115 	    7.0000 	   57.0000 	    7.5021 
    0.4196 	    2.2275 	    7.0000 	   57.0000 	    7.5341 
    0.3891 	    2.2430 	    7.0000 	   57.0000 	    7.5651 
    0.6180 	    2.2580 	    7.0000 	   57.0000 	    7.5951 
    0.5112 	    2.2725 	    7.0000 	   57.0000 	    7.6241 
    0.5875 	    2.2855 	    7.0000 	   57.0000 	    7.6501 
    0.4959 	    2.3010 	    7.0000 	   57.0000 	    7.6811 
    0.6180 	    2.3150 	    7.0000 	   57.0000 	    7.7091 
    0.4349 	    2.3295 	    7.0000 	   57.0000 	    7.7381 
    0.5722 	    2.3435 	    7.0000 	   57.0000 	    7.7661 
    0.3891 	    2.3580 	    7.0000 	   57.0000 	    7.7951 
    0.5875 	    2.3725 	    7.0000 	   57.0000 	    7.8241 
    0.4959 	    2.3845 	    7.0000 	   57.0000 	    7.8481 
    0.5112 	    2.3985 	    7.0000 	   57.0000 	    7.8761 
    0.4349 	    2.4130 	    7.0000 	   57.0000 	    7.9051 
    0.6790 	    2.4260 	    7.0000 	   57.0000 	    7.9311 
    0.4349 	    2.4410 	    7.0000 	   57.0000 	    7.9611 
    0.5417 	    2.4575 	    7.0000 	   57.0000 	    7.9941 
    0.4044 	    2.4745 	    7.0000 	   57.0000 	    8.0281 
    0.3281 	    2.4905 	    7.0000 	   57.0000 	    8.0601 
    0.4654 	    2.5055 	    7.0000 	   57.0000 	    8.0901 
    0.3891 	    2.5215 	    7.0000 	   57.0000 	    8.1221 
    0.6180 	    2.5385 	    7.0000 	   57.0000 	    8.1551 
    0.5722 	    2.5535 	    7.0000 	   57.0000 	    8.1861 
    0.5112 	    2.5705 	    7.0000 	   57.0000 	    8.2201 
    0.5264 	    2.5870 	    7.0000 	   57.0000 	    8.2531 
    0.6180 	    2.6030 	    7.0000 	   57.0000 	    8.2851 
    0.5264 	    2.6200 	    7.0000 	   57.0000 	    8.3191 
    0.5570 	    2.6365 	    7.0000 	   57.0000 	    8.3521 
    0.4196 	    2.6515 	    7.0000 	   57.0000 	    8.3822 
    0.4959 	    2.6685 	    7.0000 	   57.0000 	    8.4162 
    0.4349 	    2.6845 	    7.0000 	   57.0000 	    8.4482 
    0.5112 	    2.6985 	    7.0000 	   57.0000 	    8.4762 
    0.4501 	    2.7150 	    7.0000 	   57.0000 	    8.5092 
    0.4959 	    2.7305 	    7.0000 	   57.0000 	    8.5402 
    0.6027 	    2.7475 	    7.0000 	   57.0000 	    8.5742 
    0.4044 	    2.7620 	    7.0000 	   57.0000 	    8.6032 
    0.4654 	    2.7750 	    7.0000 	   57.0000 	    8.6292 
    0.6332 	    2.7900 	    7.0000 	   57.0000 	    8.6592 
    0.5417 	    2.8040 	    7.0000 	   57.0000 	    8.6872 
    0.4349 	    2.8175 	    7.0000 	   57.0000 	    8.7142 
    0.4349 	    2.8325 	    7.0000 	   57.0000 	    8.7442 
    0.4196 	    2.8455 	    7.0000 	   57.0000 	    8.7702 
    0.3738 	    2.8585 	    7.0000 	   57.0000 	    8.7962 
    0.2518 	    2.8720 	    7.0000 	   57.0000 	    8.8232 
    0.5264 	    2.8855 	    7.0000 	   57.0000 	    8.8502 
    0.3738 	    2.8980 	    7.0000 	   57.0000 	    8.8752 
    0.4196 	    2.9120 	    7.0000 	   57.0000 	    8.9032 
    0.5722 	    2.9270 	    7.0000 	   57.0000 	    8.9332 
    0.6180 	    2.9435 	    7.0000 	   57.0000 	    8.9662 
    0.4349 	    2.9580 	    7.0000 	   57.0000 	    8.9952 
    0.4196 	    2.9725 	    7.0000 	   57.0000 	    9.0242 
    0.4807 	    2.9900 	    7.0000 	   57.0000 	    9.0592 
    0.4196 	    3.0040 	    7.0000 	   57.0000 	    9.0872 
    0.6027 	    3.0190 	    7.0000 	   57.0000 	    9.1172 
    0.3738 	    3.0355 	    7.0000 	   57.0000 	    9.1502 
    0.4654 	    3.0510 	    7.0000 	   57.0000 	    9.1812 
    0.4196 	    3.0655 	    7.0000 	   57.0000 	    9.2102 
    0.4501 	    3.0820 	    7.0000 	   57.0000 	    9.2432 
    0.5264 	    3.0970 	    7.0000 	   57.0000 	    9.2732 
    0.4959 	    3.1120 	    7.0000 	   57.0000 	    9.3032 
    0.6180 	    3.1285 	    7.0000 	   57.0000 	    9.3362 
    0.4196 	    3.1455 	    7.0000 	   57.0000 	    9.3702 
    0.2213 	    3.1615 	    7.0000 	   57.0000 	    9.4022 
    0.4196 	    3.1775 	    7.0000 	   57.0000 	    9.4342 
    0.5264 	    3.1935 	    7.0000 	   57.0000 	    9.4662 
    0.5112 	    3.2070 	    7.0000 	   57.0000 	    9.4932 
    0.4196 	    3.2220 	    7.0000 	   57.0000 	    9.5232 
    0.5112 	    3.2385 	    7.0000 	   57.0000 	    9.5562 
    0.3891 	    3.2540 	    7.0000 	   57.0000 	    9.5872 
    0.5417 	    3.2680 	    7.0000 	   57.0000 	    9.6152 
    0.0687 	    3.2830 	    7.0000 	   57.0000 	    9.6452 
    0.4959 	    3.2960 	    7.0000 	   57.0000 	    9.6712 
    0.4196 	    3.3095 	    7.0000 	   57.0000 	    9.6982 
    0.4196 	    3.3230 	    7.0000 	   57.0000 	    9.7252 
    0.6638 	    3.3375 	    7.0000 	   57.0000 	    9.7542 
    0.5570 	    3.3510 	    7.0000 	   57.0000 	    9.7812 
    0.4196 	    3.3640 	    7.0000 	   57.0000 	    9.8072 
    0.4501 	    3.3795 	    7.0000 	   57.0000 	    9.8382 
    0.2823 	    3.3920 	    7.0000 	   57.0000 	    9.8632 
    0.4196 	    3.4055 	    7.0000 	   57.0000 	    9.8902 
    0.4044 	    3.4210 	    7.0000 	   57.0000 	    9.9212 
    0.3433 	    3.4380 	    7.0000 	   57.0000 	    9.9552 
    0.6638 	    3.4530 	    7.0000 	   57.0000 	    9.9852 
    0.6332 	    3.4700 	    7.0000 	   57.0000 	   10.0182 
    0.5417 	    3.4870 	    7.0000 	   57.0000 	   10.0522 
    0.5417 	    3.5025 	    7.0000 	   57.0000 	   10.0832 
    0.4807 	    3.5175 	    7.0000 	   57.0000 	   10.1132 
    0.4654 	    3.5355 	    7.0000 	   57.0000 	   10.1493 
    0.4349 	    3.5505 	    7.0000 	   57.0000 	   10.1793 
    0.5570 	    3.5655 	    7.0000 	   57.0000 	   10.2093 
    0.4807 	    3.5825 	    7.0000 	   57.0000 	   10.2433 
    0.5417 	    3.5975 	    7.0000 	   57.0000 	   10.2733 
    0.5112 	    3.6130 	    7.0000 	   57.0000 	   10.3043 
    0.4959 	    3.6285 	    7.0000 	   57.0000 	   10.3353 
    0.6790 	    3.6460 	    7.0000 	   57.0000 	   10.3703 
    0.4959 	    3.6615 	    7.0000 	   57.0000 	   10.4013 
    0.6180 	    3.6780 	    7.0000 	   57.0000 	   10.4343 
    0.4349 	    3.6955 	    7.0000 	   57.0000 	   10.4693 
    0.5112 	    3.7110 	    7.0000 	   57.0000 	   10.5003 
    0.5722 	    3.7270 	    7.0000 	   57.0000 	   10.5323 
    0.5264 	    3.7435 	    7.0000 	   57.0000 	   10.5653 
    0.5112 	    3.7590 	    7.0000 	   57.0000 	   10.5963 
    0.6027 	    3.7730 	    7.0000 	   57.0000 	   10.6243 
    0.4654 	    3.7885 	    7.0000 	   57.0000 	   10.6553 
    0.4501 	    3.8025 	    7.0000 	   57.0000 	   10.6833 
    0.5264 	    3.8165 	    7.0000 	   57.0000 	   10.7113 
    0.3586 	    3.8320 	    7.0000 	   57.0000 	   10.7423 
    0.4196 	    3.8450 	    7.0000 	   57.0000 	   10.7683 
    0.7095 	    3.8590 	    7.0000 	   57.0000 	   10.7963 
    0.4501 	    3.8715 	    7.0000 	   57.0000 	   10.8213 
    0.4654 	    3.9000 	    7.0000 	   57.0000 	   10.8783 
    0.4044 	    3.9125 	    7.0000 	   57.0000 	   10.9033 
    0.4196 	    3.9280 	    7.0000 	   57.0000 	   10.9343 
    0.4959 	    3.9425 	    7.0000 	   57.0000 	   10.9633 
    0.4959 	    3.9575 	    7.0000 	   57.0000 	   10.9933 
    0.5722 	    3.9725 	    7.0000 	   57.0000 	   11.0233 
    0.4807 	    3.9870 	    7.0000 	   57.0000 	   11.0523 
    0.5417 	    4.0010 	    7.0000 	   57.0000 	   11.0803 
    0.4959 	    4.0140 	    7.0000 	   57.0000 	   11.1063 
    0.5570 	    4.0290 	    7.0000 	   57.0000 	   11.1363 
    0.4501 	    4.0440 	    7.0000 	   57.0000 	   11.1663 
    0.4196 	    4.0600 	    7.0000 	   57.0000 	   11.1983 
    0.4501 	    4.0745 	    7.0000 	   57.0000 	   11.2273 
    0.4349 	    4.0890 	    7.0000 	   57.0000 	   11.2563 
    0.5417 	    4.1050 	    7.0000 	   57.0000 	   11.2883 
    0.5417 	    4.1200 	    7.0000 	   57.0000 	   11.3183 
    0.5722 	    4.1360 	    7.0000 	   57.0000 	   11.3503 
    0.4959 	    4.1520 	    7.0000 	   57.0000 	   11.3823 
    0.5264 	    4.1670 	    7.0000 	   57.0000 	   11.4123 
    0.5264 	    4.1825 	    7.0000 	   57.0000 	   11.4433 
    0.4654 	    4.1965 	    7.0000 	   57.0000 	   11.4713 
    0.4807 	    4.2120 	    7.0000 	   57.0000 	   11.5023 
    0.5264 	    4.2275 	    7.0000 	   57.0000 	   11.5333 
    0.4959 	    4.2445 	    7.0000 	   57.0000 	   11.5673 
    0.4654 	    4.2600 	    7.0000 	   57.0000 	   11.5983 
    0.3891 	    4.2740 	    7.0000 	   57.0000 	   11.6263 
    0.5570 	    4.2880 	    7.0000 	   57.0000 	   11.6543 
    0.5875 	    4.3020 	    7.0000 	   57.0000 	   11.6823 
    0.2060 	    4.3165 	    7.0000 	   57.0000 	   11.7113 
    0.4959 	    4.3315 	    7.0000 	   57.0000 	   11.7413 
    0.5417 	    4.3445 	    7.0000 	   57.0000 	   11.7673 
    0.3281 	    4.3585 	    7.0000 	   57.0000 	   11.7953 
    0.2518 	    4.3720 	    7.0000 	   57.0000 	   11.8223 
    0.4654 	    4.3845 	    7.0000 	   57.0000 	   11.8473 
    0.5722 	    4.3980 	    7.0000 	   57.0000 	   11.8744 
    0.4501 	    4.4110 	    7.0000 	   57.0000 	   11.9004 
    0.5570 	    4.4245 	    7.0000 	   57.0000 	   11.9274 
    0.5112 	    4.4400 	    7.0000 	   57.0000 	   11.9584 
    0.4654 	    4.4550 	    7.0000 	   57.0000 	   11.9884 
    0.6180 	    4.4705 	    7.0000 	   57.0000 	   12.0194 
    0.4807 	    4.4865 	    7.0000 	   57.0000 	   12.0514 
    0.6638 	    4.5015 	    7.0000 	   57.0000 	   12.0814 
    0.4959 	    4.5155 	    7.0000 	   57.0000 	   12.1094 
    0.5875 	    4.5305 	    7.0000 	   57.0000 	   12.1394 
    0.5417 	    4.5450 	    7.0000 	   57.0000 	   12.1684 
    0.5417 	    4.5595 	    7.0000 	   57.0000 	   12.1974 
    0.7401 	    4.5755 	    7.0000 	   57.0000 	   12.2294 
    0.2976 	    4.5900 	    7.0000 	   57.0000 	   12.2584 
    0.6027 	    4.6055 	    7.0000 	   57.0000 	   12.2894 
    0.6332 	    4.6210 	    7.0000 	   57.0000 	   12.3204 
    0.4959 	    4.6380 	    7.0000 	   57.0000 	   12.3544 
    0.4349 	    4.6540 	    7.0000 	   57.0000 	   12.3864 
    0.4807 	    4.6705 	    7.0000 	   57.0000 	   12.4194 
    0.6027 	    4.6870 	    7.0000 	   57.0000 	   12.4524 
    0.4044 	    4.7030 	    7.0000 	   57.0000 	   12.4844 
    0.5875 	    4.7190 	    7.0000 	   57.0000 	   12.5164 
    0.4501 	    4.7355 	    7.0000 	   57.0000 	   12.5494 
    0.4807 	    4.7510 	    7.0000 	   57.0000 	   12.5804 
    0.1450 	    4.7665 	    7.0000 	   57.0000 	   12.6114 
    0.6180 	    4.7830 	    7.0000 	   57.0000 	   12.6444 
    0.4959 	    4.7970 	    7.0000 	   57.0000 	   12.6724 
    0.5570 	    4.8115 	    7.0000 	   57.0000 	   12.7014 
    0.5875 	    4.8255 	    7.0000 	   57.0000 	   12.7294 
    0.4501 	    4.8410 	    7.0000 	   57.0000 	   12.7604 
    0.4349 	    4.8545 	    7.0000 	   57.0000 	   12.7874 
    0.4959 	    4.8675 	    7.0000 	   57.0000 	   12.8134 
    0.5417 	    4.8805 	    7.0000 	   57.0000 	   12.8394 
    0.4959 	    4.8935 	    7.0000 	   57.0000 	   12.8654 
    0.5264 	    4.9070 	    7.0000 	   57.0000 	   12.8924 
    0.4959 	    4.9195 	    7.0000 	   57.0000 	   12.9174 
    0.6180 	    4.9345 	    7.0000 	   57.0000 	   12.9474 
    0.5264 	    4.9485 	    7.0000 	   57.0000 	   12.9754 
    0.6027 	    4.9630 	    7.0000 	   57.0000 	   13.0044 
    0.4959 	    4.9790 	    7.0000 	   57.0000 	   13.0364 
    0.5722 	    4.9950 	    7.0000 	   57.0000 	   13.0684 
    0.5264 	    5.0115 	    7.0000 	   57.0000 	   13.1014 
    0.4959 	    5.0275 	    7.0000 	   57.0000 	   13.1334 
    0.5264 	    5.0455 	    7.0000 	   57.0000 	   13.1694 
    0.4501 	    5.0615 	    7.0000 	   57.0000 	   13.2014 
    0.3433 	    5.0770 	    7.0000 	   57.0000 	   13.2324 
    0.7858 	    5.0925 	    7.0000 	   57.0000 	   13.2634 
    0.3891 	    5.1075 	    7.0000 	   57.0000 	   13.2934 
    0.4654 	    5.1230 	    7.0000 	   57.0000 	   13.3244 
    0.5417 	    5.1405 	    7.0000 	   57.0000 	   13.3594 
    0.6332 	    5.1560 	    7.0000 	   57.0000 	   13.3904 
    0.4501 	    5.1710 	    7.0000 	   57.0000 	   13.4204 
    0.6180 	    5.1870 	    7.0000 	   57.0000 	   13.4524 
    0.5264 	    5.2040 	    7.0000 	   57.0000 	   13.4864 
    0.3891 	    5.2200 	    7.0000 	   57.0000 	   13.5184 
    0.6485 	    5.2370 	    7.0000 	   57.0000 	   13.5524 
    0.4959 	    5.2535 	    7.0000 	   57.0000 	   13.5854 
    0.4501 	    5.2700 	    7.0000 	   57.0000 	   13.6185 
    0.5264 	    5.2855 	    7.0000 	   57.0000 	   13.6495 
    0.6638 	    5.2995 	    7.0000 	   57.0000 	   13.6775 
    0.3433 	    5.3135 	    7.0000 	   57.0000 	   13.7055 
    0.6638 	    5.3270 	    7.0000 	   57.0000 	   13.7325 
    0.5722 	    5.3425 	    7.0000 	   57.0000 	   13.7635 
    0.5570 	    5.3570 	    7.0000 	   57.0000 	   13.7925 
    0.4654 	    5.3705 	    7.0000 	   57.0000 	   13.8195 
    0.6638 	    5.3840 	    7.0000 	   57.0000 	   13.8465 
    0.4959 	    5.3970 	    7.0000 	   57.0000 	   13.8725 
    0.5875 	    5.4105 	    7.0000 	   57.0000 	   13.8995 
    0.6180 	    5.4245 	    7.0000 	   57.0000 	   13.9275 
    0.5112 	    5.4415 	    7.0000 	   57.0000 	   13.9615 
    0.7095 	    5.4565 	    7.0000 	   57.0000 	   13.9915 
    0.6485 	    5.4725 	    7.0000 	   57.0000 	   14.0235 
    0.5112 	    5.4880 	    7.0000 	   57.0000 	   14.0545 
    0.5875 	    5.5045 	    7.0000 	   57.0000 	   14.0875 
    0.4654 	    5.5200 	    7.0000 	   57.0000 	   14.1185 
    0.6180 	    5.5380 	    7.0000 	   57.0000 	   14.1545 
    0.6027 	    5.5540 	    7.0000 	   57.0000 	   14.1865 
    0.6332 	    5.5695 	    7.0000 	   57.0000 	   14.2175 
    0.4349 	    5.5850 	    7.0000 	   57.0000 	   14.2485 
    0.6332 	    5.6005 	    7.0000 	   57.0000 	   14.2795 
    0.4807 	    5.6150 	    7.0000 	   57.0000 	   14.3085 
    0.4807 	    5.6315 	    7.0000 	   57.0000 	   14.3415 
    0.5875 	    5.6450 	    7.0000 	   57.0000 	   14.3685 
    0.5417 	    5.6600 	    7.0000 	   57.0000 	   14.3985 
    0.5264 	    5.6755 	    7.0000 	   57.0000 	   14.4295 
    0.6332 	    5.6910 	    7.0000 	   57.0000 	   14.4605 
    0.4959 	    5.7065 	    7.0000 	   57.0000 	   14.4915 
    0.6027 	    5.7215 	    7.0000 	   57.0000 	   14.5215 
    0.4349 	    5.7380 	    7.0000 	   57.0000 	   14.5545 
    0.5722 	    5.7515 	    7.0000 	   57.0000 	   14.5815 
    0.2976 	    5.7660 	    7.0000 	   57.0000 	   14.6105 
    0.4807 	    5.7810 	    7.0000 	   57.0000 	   14.6405 
    0.6638 	    5.7950 	    7.0000 	   57.0000 	   14.6685 
    0.4959 	    5.8095 	    7.0000 	   57.0000 	   14.6975 
    0.4349 	    5.8235 	    7.0000 	   57.0000 	   14.7255 
    0.5722 	    5.8395 	    7.0000 	   57.0000 	   14.7575 
    0.4349 	    5.8530 	    7.0000 	   57.0000 	   14.7845 
    0.6027 	    5.8670 	    7.0000 	   57.0000 	   14.8125 
    0.5112 	    5.8810 	    7.0000 	   57.0000 	   14.8405 
    0.4654 	    5.8940 	    7.0000 	   57.0000 	   14.8665 
    0.6027 	    5.9075 	    7.0000 	   57.0000 	   14.8935 
    0.7553 	    5.9220 	    7.0000 	   57.0000 	   14.9225 
    0.4349 	    5.9390 	    7.0000 	   57.0000 	   14.9565 
    0.5264 	    5.9540 	    7.0000 	   57.0000 	   14.9865 
    0.7553 	    5.9700 	    7.0000 	   57.0000 	   15.0185 
    0.5875 	    5.9860 	    7.0000 	   57.0000 	   15.0505 
    0.5112 	    6.0015 	    7.0000 	   57.0000 	   15.0815 
    0.5875 	    6.0160 	    7.0000 	   57.0000 	   15.1105 
    0.5570 	    6.0310 	    7.0000 	   57.0000 	   15.1405 
    0.5570 	    6.0455 	    7.0000 	   57.0000 	   15.1695 
    0.2976 	    6.0605 	    7.0000 	   57.0000 	   15.1995 
    0.5417 	    6.0745 	    7.0000 	   57.0000 	   15.2275 
    0.5417 	    6.0885 	    7.0000 	   57.0000 	   15.2555 
    0.4959 	    6.1020 	    7.0000 	   57.0000 	   15.2825 
    0.5722 	    6.1160 	    7.0000 	   57.0000 	   15.3105 
    0.5417 	    6.1315 	    7.0000 	   57.0000 	   15.3415 
    0.5112 	    6.1450 	    7.0000 	   57.0000 	   15.3686 
    0.6180 	    6.1590 	    7.0000 	   57.0000 	   15.3966 
    0.7401 	    6.1745 	    7.0000 	   57.0000 	   15.4276 
    0.4959 	    6.1905 	    7.0000 	   57.0000 	   15.4596 
    0.5875 	    6.2060 	    7.0000 	   57.0000 	   15.4906 
    0.5570 	    6.2210 	    7.0000 	   57.0000 	   15.5206 
    0.5875 	    6.2380 	    7.0000 	   57.0000 	   15.5546 
    0.5112 	    6.2545 	    7.0000 	   57.0000 	   15.5876 
    0.5417 	    6.2700 	    7.0000 	   57.0000 	   15.6186 
    0.4349 	    6.2865 	    7.0000 	   57.0000 	   15.6516 
    0.6943 	    6.3020 	    7.0000 	   57.0000 	   15.6826 
    0.5417 	    6.3160 	    7.0000 	   57.0000 	   15.7106 
    0.5264 	    6.3300 	    7.0000 	   57.0000 	   15.7386 
    0.4807 	    6.3440 	    7.0000 	   57.0000 	   15.7666 
    0.3128 	    6.3580 	    7.0000 	   57.0000 	   15.7946 
    0.5264 	    6.3725 	    7.0000 	   57.0000 	   15.8236 
    0.5112 	    6.3855 	    7.0000 	   57.0000 	   15.8496 
    0.5570 	    6.3990 	    7.0000 	   57.0000 	   15.8766 
    0.5722 	    6.4125 	    7.0000 	   57.0000 	   15.9036 
    0.5417 	    6.4270 	    7.0000 	   57.0000 	   15.9326 
    0.7706 	    6.4415 	    7.0000 	   57.0000 	   15.9616 
    0.4654 	    6.4550 	    7.0000 	   57.0000 	   15.9886 
    0.5417 	    6.4685 	    7.0000 	   57.0000 	   16.0156 
    0.4959 	    6.4825 	    7.0000 	   57.0000 	   16.0436 
    0.6485 	    6.4980 	    7.0000 	   57.0000 	   16.0746 
    0.4044 	    6.5130 	    7.0000 	   57.0000 	   16.1046 
    0.6180 	    6.5280 	    7.0000 	   57.0000 	   16.1346 
    0.2823 	    6.5440 	    7.0000 	   57.0000 	   16.1666 
    0.4959 	    6.5590 	    7.0000 	   57.0000 	   16.1966 
    0.5264 	    6.5755 	    7.0000 	   57.0000 	   16.2296 
    0.4196 	    6.5915 	    7.0000 	   57.0000 	   16.2616 
    0.3433 	    6.6065 	    7.0000 	   57.0000 	   16.2916 
    0.5417 	    6.6215 	    7.0000 	   57.0000 	   16.3216 
    0.6332 	    6.6395 	    7.0000 	   57.0000 	   16.3576 
    0.3891 	    6.6560 	    7.0000 	   57.0000 	   16.3906 
    0.5570 	    6.6710 	    7.0000 	   57.0000 	   16.4206 
    0.6027 	    6.6870 	    7.0000 	   57.0000 	   16.4526 
    0.5112 	    6.7045 	    7.0000 	   57.0000 	   16.4876 
    0.5875 	    6.7205 	    7.0000 	   57.0000 	   16.5196 
    0.4349 	    6.7380 	    7.0000 	   57.0000 	   16.5546 
    0.5264 	    6.7545 	    7.0000 	   57.0000 	   16.5876 
    0.5112 	    6.7705 	    7.0000 	   57.0000 	   16.6196 
    0.4654 	    6.7870 	    7.0000 	   57.0000 	   16.6526 
    0.5722 	    6.8015 	    7.0000 	   57.0000 	   16.6816 
    0.7095 	    6.8160 	    7.0000 	   57.0000 	   16.7106 
    0.4654 	    6.8315 	    7.0000 	   57.0000 	   16.7416 
    0.6027 	    6.8455 	    7.0000 	   57.0000 	   16.7696 
    0.5112 	    6.8600 	    7.0000 	   57.0000 	   16.7986 
    0.5722 	    6.8735 	    7.0000 	   57.0000 	   16.8256 
    0.5112 	    6.8875 	    7.0000 	   57.0000 	   16.8536 
    0.4349 	    6.9005 	    7.0000 	   57.0000 	   16.8796 
    0.4959 	    6.9150 	    7.0000 	   57.0000 	   16.9086 
    0.5112 	    6.9300 	    7.0000 	   57.0000 	   16.9386 
    0.5264 	    6.9450 	    7.0000 	   57.0000 	   16.9686 
    0.4349 	    6.9615 	    7.0000 	   57.0000 	   17.0016 
    0.6485 	    6.9790 	    7.0000 	   57.0000 	   17.0366 
    0.4654 	    6.9955 	    7.0000 	   57.0000 	   17.0696 
    0.4807 	    7.0120 	    7.0000 	   57.0000 	   17.1026 
    0.5112 	    7.0285 	    7.0000 	   57.0000 	   17.1357 
    0.6638 	    7.0465 	    7.0000 	   57.0000 	   17.1717 
    0.5875 	    7.0620 	    7.0000 	   57.0000 	   17.2027 
    0.6180 	    7.0800 	    7.0000 	   57.0000 	   17.2387 
    0.5875 	    7.0960 	    7.0000 	   57.0000 	   17.2707 
    0.5875 	    7.1115 	    7.0000 	   57.0000 	   17.3017 
    0.5417 	    7.1280 	    7.0000 	   57.0000 	   17.3347 
    0.5722 	    7.1440 	    7.0000 	   57.0000 	   17.3667 
    0.4196 	    7.1605 	    7.0000 	   57.0000 	   17.3997 
    0.5264 	    7.1760 	    7.0000 	   57.0000 	   17.4307 
    0.5570 	    7.1925 	    7.0000 	   57.0000 	   17.4637 
    0.5264 	    7.2080 	    7.0000 	   57.0000 	   17.4947 
    0.5570 	    7.2245 	    7.0000 	   57.0000 	   17.5277 
    0.4959 	    7.2410 	    7.0000 	   57.0000 	   17.5607 
    0.3586 	    7.2570 	    7.0000 	   57.0000 	   17.5927 
    0.5417 	    7.2725 	    7.0000 	   57.0000 	   17.6237 
    0.6332 	    7.2875 	    7.0000 	   57.0000 	   17.6537 
    0.4807 	    7.3030 	    7.0000 	   57.0000 	   17.6847 
    0.6638 	    7.3180 	    7.0000 	   57.0000 	   17.7147 
    0.5264 	    7.3325 	    7.0000 	   57.0000 	   17.7437 
    0.4959 	    7.3475 	    7.0000 	   57.0000 	   17.7737 
    0.6332 	    7.3620 	    7.0000 	   57.0000 	   17.8027 
    0.5417 	    7.3765 	    7.0000 	   57.0000 	   17.8317 
    0.5570 	    7.3900 	    7.0000 	   57.0000 	   17.8587 
    0.6332 	    7.4040 	    7.0000 	   57.0000 	   17.8867 
    0.5570 	    7.4185 	    7.0000 	   57.0000 	   17.9157 
    0.4807 	    7.4345 	    7.0000 	   57.0000 	   17.9477 
    0.5722 	    7.4485 	    7.0000 	   57.0000 	   17.9757 
    0.4349 	    7.4625 	    7.0000 	   57.0000 	   18.0037 
    0.5264 	    7.4770 	    7.0000 	   57.0000 	   18.0327 
    0.4501 	    7.4910 	    7.0000 	   57.0000 	   18.0607 
    0.6332 	    7.5055 	    7.0000 	   57.0000 	   18.0897 
    0.5570 	    7.5210 	    7.0000 	   57.0000 	   18.1207 
    0.4959 	    7.5370 	    7.0000 	   57.0000 	   18.1527 
    0.5264 	    7.5540 	    7.0000 	   57.0000 	   18.1867 
    0.4349 	    7.5710 	    7.0000 	   57.0000 	   18.2207 
    0.4959 	    7.5865 	    7.0000 	   57.0000 	   18.2517 
    0.3586 	    7.6035 	    7.0000 	   57.0000 	   18.2857 
    0.4959 	    7.6205 	    7.0000 	   57.0000 	   18.3197 
    0.4959 	    7.6395 	    7.0000 	   57.0000 	   18.3577 
    0.5875 	    7.6555 	    7.0000 	   57.0000 	   18.3897 
    0.4807 	    7.6725 	    7.0000 	   57.0000 	   18.4237 
    0.5264 	    7.6885 	    7.0000 	   57.0000 	   18.4557 
    0.4196 	    7.7045 	    7.0000 	   57.0000 	   18.4877 
    0.5112 	    7.7215 	    7.0000 	   57.0000 	   18.5217 
    0.5722 	    7.7380 	    7.0000 	   57.0000 	   18.5547 
    0.4654 	    7.7545 	    7.0000 	   57.0000 	   18.5877 
    0.4807 	    7.7705 	    7.0000 	   57.0000 	   18.6197 
    0.5570 	    7.7875 	    7.0000 	   57.0000 	   18.6537 
    0.2823 	    7.8025 	    7.0000 	   57.0000 	   18.6837 
    0.5570 	    7.8170 	    7.0000 	   57.0000 	   18.7127 
    0.5112 	    7.8335 	    7.0000 	   57.0000 	   18.7457 
    0.6027 	    7.8495 	    7.0000 	   57.0000 	   18.7777 
    0.7248 	    7.8650 	    7.0000 	   57.0000 	   18.8087 
    0.4196 	    7.8790 	    7.0000 	   57.0000 	   18.8367 
    0.5264 	    7.8940 	    7.0000 	   57.0000 	   18.8668 
    0.5417 	    7.9080 	    7.0000 	   57.0000 	   18.8948 
    0.5112 	    7.9215 	    7.0000 	   57.0000 	   18.9218 
    0.6027 	    7.9355 	    7.0000 	   57.0000 	   18.9498 
    0.4349 	    7.9505 	    7.0000 	   57.0000 	   18.9798 
    0.6180 	    7.9650 	    7.0000 	   57.0000 	   19.0078 
    0.4654 	    7.9785 	    7.0000 	   57.0000 	   19.0358 
    0.5112 	    7.9940 	    7.0000 	   57.0000 	   19.0668 
    0.5417 	    8.0110 	    7.0000 	   57.0000 	   19.1008 
    0.5264 	    8.0270 	    7.0000 	   57.0000 	   19.1328 
    0.5112 	    8.0450 	    7.0000 	   57.0000 	   19.1688 
    0.4807 	    8.0625 	    7.0000 	   57.0000 	   19.2038 
    0.4501 	    8.0790 	    7.0000 	   57.0000 	   19.2368 
    0.5722 	    8.0955 	    7.0000 	   57.0000 	   19.2698 
    0.5264 	    8.1125 	    7.0000 	   57.0000 	   19.3038 
    0.6027 	    8.1290 	    7.0000 	   57.0000 	   19.3368 
    0.4959 	    8.1465 	    7.0000 	   57.0000 	   19.3718 
    0.4044 	    8.1620 	    7.0000 	   57.0000 	   19.4028 
    0.5875 	    8.1785 	    7.0000 	   57.0000 	   19.4358 
    0.6332 	    8.1960 	    7.0000 	   57.0000 	   19.4708 
    0.5417 	    8.2125 	    7.0000 	   57.0000 	   19.5038 
    0.4959 	    8.2300 	    7.0000 	   57.0000 	   19.5388 
    0.7401 	    8.2480 	    7.0000 	   57.0000 	   19.5748 
    0.6027 	    8.2645 	    7.0000 	   57.0000 	   19.6068 
    0.5722 	    8.2810 	    7.0000 	   57.0000 	   19.6408 
    0.4959 	    8.2960 	    7.0000 	   57.0000 	   19.6708 
    0.6332 	    8.3110 	    7.0000 	   57.0000 	   19.7008 
    0.6485 	    8.3260 	    7.0000 	   57.0000 	   19.7308 
    0.5112 	    8.3415 	    7.0000 	   57.0000 	   19.7618 
    0.4654 	    8.3560 	    7.0000 	   57.0000 	   19.7908 
    0.5570 	    8.3705 	    7.0000 	   57.0000 	   19.8198 
    0.6180 	    8.3850 	    7.0000 	   57.0000 	   19.8488 
    0.4501 	    8.3990 	    7.0000 	   57.0000 	   19.8768 
    0.5875 	    8.4130 	    7.0000 	   57.0000 	   19.9048 
    0.5112 	    8.4280 	    7.0000 	   57.0000 	   19.9348 
    0.5112 	    8.4460 	    7.0000 	   57.0000 	   19.9708 
    0.4959 	    8.4625 	    7.0000 	   57.0000 	   20.0038 
    0.6638 	    8.4795 	    7.0000 	   57.0000 	   20.0378 
    0.4501 	    8.4950 	    7.0000 	   57.0000 	   20.0688 
    0.6027 	    8.5120 	    7.0000 	   57.0000 	   20.1028 
    0.5570 	    8.5285 	    7.0000 	   57.0000 	   20.1358 
    0.3281 	    8.5460 	    7.0000 	   57.0000 	   20.1708 
    0.6180 	    8.5625 	    7.0000 	   57.0000 	   20.2038 
    0.5722 	    8.5790 	    7.0000 	   57.0000 	   20.2368 
    0.5264 	    8.5965 	    7.0000 	   57.0000 	   20.2708 
    0.5722 	    8.6130 	    7.0000 	   57.0000 	   20.3048 
    0.5875 	    8.6290 	    7.0000 	   57.0000 	   20.3368 
    0.5722 	    8.6465 	    7.0000 	   57.0000 	   20.3718 
    0.6332 	    8.6640 	    7.0000 	   57.0000 	   20.4068 
    0.6180 	    8.6800 	    7.0000 	   57.0000 	   20.4388 
    0.2976 	    8.6970 	    7.0000 	   57.0000 	   20.4728 
    0.5875 	    8.7130 	    7.0000 	   57.0000 	   20.5048 
    0.6027 	    8.7300 	    7.0000 	   57.0000 	   20.5388 
    0.6027 	    8.7470 	    7.0000 	   57.0000 	   20.5728 
    0.5875 	    8.7625 	    7.0000 	   57.0000 	   20.6038 
    0.4654 	    8.7795 	    7.0000 	   57.0000 	   20.6379 
    0.4959 	    8.7945 	    7.0000 	   57.0000 	   20.6679 
    0.4501 	    8.8100 	    7.0000 	   57.0000 	   20.6989 
    0.6485 	    8.8250 	    7.0000 	   57.0000 	   20.7289 
    0.6485 	    8.8420 	    7.0000 	   57.0000 	   20.7629 
    0.6027 	    8.8570 	    7.0000 	   57.0000 	   20.7929 
    0.6180 	    8.8715 	    7.0000 	   57.0000 	   20.8219 
    0.4349 	    8.8865 	    7.0000 	   57.0000 	   20.8519 
    0.4501 	    8.9005 	    7.0000 	   57.0000 	   20.8799 
    0.4196 	    8.9140 	    7.0000 	   57.0000 	   20.9069 
    0.4959 	    8.9285 	    7.0000 	   57.0000 	   20.9359 
    0.4044 	    8.9440 	    7.0000 	   57.0000 	   20.9669 
    0.6332 	    8.9595 	    7.0000 	   57.0000 	   20.9979 
    0.5875 	    8.9745 	    7.0000 	   57.0000 	   21.0279 
    0.3433 	    8.9885 	    7.0000 	   57.0000 	   21.0559 
    0.4959 	    9.0035 	    7.0000 	   57.0000 	   21.0859 
    0.6332 	    9.0195 	    7.0000 	   57.0000 	   21.1179 
    0.5722 	    9.0370 	    7.0000 	   57.0000 	   21.1529 
    0.6790 	    9.0545 	    7.0000 	   57.0000 	   21.1879 
    0.4044 	    9.0720 	    7.0000 	   57.0000 	   21.2229 
    0.3586 	    9.0890 	    7.0000 	   57.0000 	   21.2569 
    0.6790 	    9.1055 	    7.0000 	   57.0000 	   21.2899 
    0.5570 	    9.1220 	    7.0000 	   57.0000 	   21.3229 
    0.5722 	    9.1380 	    7.0000 	   57.0000 	   21.3549 
    0.4349 	    9.1540 	    7.0000 	   57.0000 	   21.3869 
    0.6180 	    9.1685 	    7.0000 	   57.0000 	   21.4159 
    0.5112 	    9.1830 	    7.0000 	   57.0000 	   21.4449 
    0.4196 	    9.1975 	    7.0000 	   57.0000 	   21.4739 
    0.5417 	    9.2135 	    7.0000 	   57.0000 	   21.5059 
    0.2365 	    9.2295 	    7.0000 	   57.0000 	   21.5379 
    0.5417 	    9.2465 	    7.0000 	   57.0000 	   21.5719 
    0.5875 	    9.2620 	    7.0000 	   57.0000 	   21.6029 
    0.7248 	    9.2780 	    7.0000 	   57.0000 	   21.6349 
    0.4349 	    9.2925 	    7.0000 	   57.0000 	   21.6639 
    0.6027 	    9.3075 	    7.0000 	   57.0000 	   21.6939 
    0.4959 	    9.3220 	    7.0000 	   57.0000 	   21.7229 
    0.7095 	    9.3375 	    7.0000 	   57.0000 	   21.7539 
    0.3586 	    9.3520 	    7.0000 	   57.0000 	   21.7829 
    0.4807 	    9.3665 	    7.0000 	   57.0000 	   21.8119 
    0.5722 	    9.3815 	    7.0000 	   57.0000 	   21.8419 
    0.5722 	    9.3965 	    7.0000 	   57.0000 	   21.8719 
    0.4654 	    9.4110 	    7.0000 	   57.0000 	   21.9009 
    0.6180 	    9.4250 	    7.0000 	   57.0000 	   21.9289 
    0.5264 	    9.4405 	    7.0000 	   57.0000 	   21.9599 
    0.4959 	    9.4555 	    7.0000 	   57.0000 	   21.9899 
    0.5417 	    9.4725 	    7.0000 	   57.0000 	   22.0239 
    0.5264 	    9.4890 	    7.0000 	   57.0000 	   22.0569 
    0.5570 	    9.5045 	    7.0000 	   57.0000 	   22.0879 
    0.5722 	    9.5195 	    7.0000 	   57.0000 	   22.1179 
    0.6180 	    9.5340 	    7.0000 	   57.0000 	   22.1469 
    0.4959 	    9.5485 	    7.0000 	   57.0000 	   22.1759 
    0.4959 	    9.5630 	    7.0000 	   57.0000 	   22.2049 
    0.6027 	    9.5785 	    7.0000 	   57.0000 	   22.2359 
    0.4807 	    9.5950 	    7.0000 	   57.0000 	   22.2689 
    0.5875 	    9.6125 	    7.0000 	   57.0000 	   22.3039 
    0.6790 	    9.6290 	    7.0000 	   57.0000 	   22.3369 
    0.6790 	    9.6480 	    7.0000 	   57.0000 	   22.3750 
    0.5112 	    9.6650 	    7.0000 	   57.0000 	   22.4090 
    0.5722 	    9.6815 	    7.0000 	   57.0000 	   22.4420 
    0.4959 	    9.6980 	    7.0000 	   57.0000 	   22.4750 
    0.3433 	    9.7145 	    7.0000 	   57.0000 	   22.5080 
    0.5264 	    9.7320 	    7.0000 	   57.0000 	   22.5430 
    0.5112 	    9.7490 	    7.0000 	   57.0000 	   22.5770 
    0.7248 	    9.7650 	    7.0000 	   57.0000 	   22.6090 
    0.6332 	    9.7825 	    7.0000 	   57.0000 	   22.6440 
    0.5875 	    9.7980 	    7.0000 	   57.0000 	   22.6750 
    0.6790 	    9.8135 	    7.0000 	   57.0000 	   22.7060 
    0.7553 	    9.8290 	    7.0000 	   57.0000 	   22.7370 
    0.4807 	    9.8455 	    7.0000 	   57.0000 	   22.7700 
    0.6332 	    9.8600 	    7.0000 	   57.0000 	   22.7990 
    0.5417 	    9.8750 	    7.0000 	   57.0000 	   22.8290 
    0.6027 	    9.8900 	    7.0000 	   57.0000 	   22.8590 
    0.5722 	    9.9045 	    7.0000 	   57.0000 	   22.8880 
    0.5570 	    9.9185 	    7.0000 	   57.0000 	   22.9160 
    0.4349 	    9.9330 	    7.0000 	   57.0000 	   22.9450 
    0.6790 	    9.9485 	    7.0000 	   57.0000 	   22.9760 
    0.5112 	    9.9645 	    7.0000 	   57.0000 	   23.0080 
    0.4959 	    9.9805 	    7.0000 	   57.0000 	   23.0400 
    0.4654 	    9.9965 	    7.0000 	   57.0000 	   23.0720 
    0.3281 	   10.0140 	    7.0000 	   57.0000 	   23.1070 
    0.6638 	   10.0310 	    7.0000 	   57.0000 	   23.1410 
    0.6790 	   10.0500 	    7.0000 	   57.0000 	   23.1790 
    0.6332 	   10.0655 	    7.0000 	   57.0000 	   23.2100 
    0.4959 	   10.0825 	    7.0000 	   57.0000 	   23.2440 
    0.5570 	   10.1000 	    7.0000 	   57.0000 	   23.2790 
    0.5875 	   10.1165 	    7.0000 	   57.0000 	   23.3120 
    0.5264 	   10.1340 	    7.0000 	   57.0000 	   23.3470 
    0.5722 	   10.1500 	    7.0000 	   57.0000 	   23.3790 
    0.5264 	   10.1675 	    7.0000 	   57.0000 	   23.4140 
    0.5722 	   10.1840 	    7.0000 	   57.0000 	   23.4470 
    0.5875 	   10.2010 	    7.0000 	   57.0000 	   23.4810 
    0.6638 	   10.2180 	    7.0000 	   57.0000 	   23.5150 
    0.2060 	   10.2345 	    7.0000 	   57.0000 	   23.5480 
    0.6027 	   10.2515 	    7.0000 	   57.0000 	   23.5820 
    0.5417 	   10.2685 	    7.0000 	   57.0000 	   23.6160 
    0.6485 	   10.2860 	    7.0000 	   57.0000 	   23.6510 
    0.6332 	   10.3035 	    7.0000 	   57.0000 	   23.6860 
    0.5875 	   10.3190 	    7.0000 	   57.0000 	   23.7170 
    0.6027 	   10.3350 	    7.0000 	   57.0000 	   23.7490 
    0.3433 	   10.3495 	    7.0000 	   57.0000 	   23.7780 
    0.5570 	   10.3650 	    7.0000 	   57.0000 	   23.8090 
    0.6790 	   10.3800 	    7.0000 	   57.0000 	   23.8390 
    0.5875 	   10.3955 	    7.0000 	   57.0000 	   23.8700 
    0.6180 	   10.4110 	    7.0000 	   57.0000 	   23.9010 
    0.5417 	   10.4260 	    7.0000 	   57.0000 	   23.9310 
    0.5875 	   10.4400 	    7.0000 	   57.0000 	   23.9590 
    0.5417 	   10.4555 	    7.0000 	   57.0000 	   23.9900 
    0.4959 	   10.4735 	    7.0000 	   57.0000 	   24.0260 
    0.5875 	   10.4905 	    7.0000 	   57.0000 	   24.0600 
    0.6180 	   10.5075 	    7.0000 	   57.0000 	   24.0940 
    0.5112 	   10.5245 	    7.0000 	   57.0000 	   24.1281 
    0.4501 	   10.5435 	    7.0000 	   57.0000 	   24.1661 
    0.5722 	   10.5590 	    7.0000 	   57.0000 	   24.1971 
    0.4807 	   10.5765 	    7.0000 	   57.0000 	   24.2321 
    0.5112 	   10.5930 	    7.0000 	   57.0000 	   24.2651 
    0.5570 	   10.6095 	    7.0000 	   57.0000 	   24.2981 
    0.5722 	   10.6260 	    7.0000 	   57.0000 	   24.3311 
    0.7401 	   10.6445 	    7.0000 	   57.0000 	   24.3681 
    0.5264 	   10.6605 	    7.0000 	   57.0000 	   24.4001 
    0.6638 	   10.6780 	    7.0000 	   57.0000 	   24.4351 
    0.6180 	   10.6965 	    7.0000 	   57.0000 	   24.4721 
    0.5417 	   10.7135 	    7.0000 	   57.0000 	   24.5061 
    0.6485 	   10.7305 	    7.0000 	   57.0000 	   24.5401 
    0.5875 	   10.7480 	    7.0000 	   57.0000 	   24.5751 
    0.6638 	   10.7650 	    7.0000 	   57.0000 	   24.6091 
    0.5570 	   10.7820 	    7.0000 	   57.0000 	   24.6431 
    0.5264 	   10.7990 	    7.0000 	   57.0000 	   24.6771 
    0.5570 	   10.8165 	    7.0000 	   57.0000 	   24.7121 
    0.4349 	   10.8320 	    7.0000 	   57.0000 	   24.7431 
    0.4349 	   10.8500 	    7.0000 	   57.0000 	   24.7791 
    0.4807 	   10.8650 	    7.0000 	   57.0000 	   24.8091 
    0.5112 	   10.8805 	    7.0000 	   57.0000 	   24.8401 
    0.5875 	   10.8960 	    7.0000 	   57.0000 	   24.8711 
    0.6790 	   10.9110 	    7.0000 	   57.0000 	   24.9011 
    0.4654 	   10.9265 	    7.0000 	   57.0000 	   24.9321 
    0.5875 	   10.9410 	    7.0000 	   57.0000 	   24.9611 
    0.6180 	   10.9550 	    7.0000 	   57.0000 	   24.9891 
    0.4196 	   10.9715 	    7.0000 	   57.0000 	   25.0221 
    0.6027 	   10.9910 	    7.0000 	   57.0000 	   25.0611 
    0.5570 	   11.0075 	    7.0000 	   57.0000 	   25.0941 
    0.5722 	   11.0245 	    7.0000 	   57.0000 	   25.1281 
    0.6790 	   11.0440 	    7.0000 	   57.0000 	   25.1671 
    0.4349 	   11.0615 	    7.0000 	   57.0000 	   25.2021 
    0.6485 	   11.0785 	    7.0000 	   57.0000 	   25.2361 
    0.4959 	   11.0970 	    7.0000 	   57.0000 	   25.2731 
    0.5112 	   11.1140 	    7.0000 	   57.0000 	   25.3071 
    0.6180 	   11.1305 	    7.0000 	   57.0000 	   25.3401 
    0.6027 	   11.1475 	    7.0000 	   57.0000 	   25.3741 
    0.5112 	   11.1655 	    7.0000 	   57.0000 	   25.4101 
    0.5875 	   11.1810 	    7.0000 	   57.0000 	   25.4411 
    0.5570 	   11.1985 	    7.0000 	   57.0000 	   25.4761 
    0.6332 	   11.2160 	    7.0000 	   57.0000 	   25.5111 
    0.6943 	   11.2325 	    7.0000 	   57.0000 	   25.5441 
    0.5264 	   11.2520 	    7.0000 	   57.0000 	   25.5821 
    0.5417 	   11.2690 	    7.0000 	   57.0000 	   25.6171 
    0.5570 	   11.2865 	    7.0000 	   57.0000 	   25.6521 
    0.5875 	   11.3045 	    7.0000 	   57.0000 	   25.6881 
    0.5570 	   11.3210 	    7.0000 	   57.0000 	   25.7211 
    0.5570 	   11.3370 	    7.0000 	   57.0000 	   25.7531 
    0.6027 	   11.3525 	    7.0000 	   57.0000 	   25.7841 
    0.4959 	   11.3690 	    7.0000 	   57.0000 	   25.8171 
    0.5417 	   11.3850 	    7.0000 	   57.0000 	   25.8491 
    0.5722 	   11.4005 	    7.0000 	   57.0000 	   25.8802 
    0.5570 	   11.4155 	    7.0000 	   57.0000 	   25.9102 
    0.6180 	   11.4325 	    7.0000 	   57.0000 	   25.9442 
    0.7401 	   11.4475 	    7.0000 	   57.0000 	   25.9742 
    0.5875 	   11.4630 	    7.0000 	   57.0000 	   26.0052 
    0.6790 	   11.4790 	    7.0000 	   57.0000 	   26.0372 
    0.5875 	   11.4950 	    7.0000 	   57.0000 	   26.0692 
    0.6332 	   11.5125 	    7.0000 	   57.0000 	   26.1042 
    0.4349 	   11.5305 	    7.0000 	   57.0000 	   26.1402 
    0.5112 	   11.5485 	    7.0000 	   57.0000 	   26.1762 
    0.7706 	   11.5650 	    7.0000 	   57.0000 	   26.2092 
    0.4501 	   11.5825 	    7.0000 	   57.0000 	   26.2442 
    0.5722 	   11.5995 	    7.0000 	   57.0000 	   26.2782 
    0.6027 	   11.6155 	    7.0000 	   57.0000 	   26.3102 
    0.6790 	   11.6330 	    7.0000 	   57.0000 	   26.3452 
    0.3891 	   11.6525 	    7.0000 	   57.0000 	   26.3842 
    0.5722 	   11.6705 	    7.0000 	   57.0000 	   26.4202 
    0.6332 	   11.6870 	    7.0000 	   57.0000 	   26.4532 
    0.5264 	   11.7020 	    7.0000 	   57.0000 	   26.4832 
    0.3433 	   11.7180 	    7.0000 	   57.0000 	   26.5152 
    0.5722 	   11.7335 	    7.0000 	   57.0000 	   26.5462 
    0.6027 	   11.7490 	    7.0000 	   57.0000 	   26.5772 
    0.5264 	   11.7640 	    7.0000 	   57.0000 	   26.6072 
    0.6180 	   11.7800 	    7.0000 	   57.0000 	   26.6392 
    0.6332 	   11.7955 	    7.0000 	   57.0000 	   26.6702 
    0.6485 	   11.8110 	    7.0000 	   57.0000 	   26.7012 
    0.6332 	   11.8265 	    7.0000 	   57.0000 	   26.7322 
    0.4196 	   11.8440 	    7.0000 	   57.0000 	   26.7672 
    0.5570 	   11.8600 	    7.0000 	   57.0000 	   26.7992 
    0.5570 	   11.8755 	    7.0000 	   57.0000 	   26.8302 
    0.5570 	   11.8900 	    7.0000 	   57.0000 	   26.8592 
    0.6485 	   11.9050 	    7.0000 	   57.0000 	   26.8892 
    0.5722 	   11.9200 	    7.0000 	   57.0000 	   26.9192 
    0.6790 	   11.9365 	    7.0000 	   57.0000 	   26.9522 
    0.6638 	   11.9515 	    7.0000 	   57.0000 	   26.9822 
    0.6332 	   11.9670 	    7.0000 	   57.0000 	   27.0132 
    0.5417 	   11.9820 	    7.0000 	   57.0000 	   27.0432 
    0.6790 	   11.9980 	    7.0000 	   57.0000 	   27.0752 
    0.5570 	   12.0155 	    7.0000 	   57.0000 	   27.1102 
    0.6332 	   12.0310 	    7.0000 	   57.0000 	   27.1412 
    0.6790 	   12.0490 	    7.0000 	   57.0000 	   27.1772 
    0.7553 	   12.0640 	    7.0000 	   57.0000 	   27.2072 
    0.6332 	   12.0790 	    7.0000 	   57.0000 	   27.2372 
    0.6790 	   12.0940 	    7.0000 	   57.0000 	   27.2672 
    0.5264 	   12.1095 	    7.0000 	   57.0000 	   27.2982 
    0.6485 	   12.1250 	    7.0000 	   57.0000 	   27.3292 
    0.4807 	   12.1400 	    7.0000 	   57.0000 	   27.3592 
    0.5570 	   12.1570 	    7.0000 	   57.0000 	   27.3932 
    0.4959 	   12.1740 	    7.0000 	   57.0000 	   27.4272 
    0.5875 	   12.1930 	    7.0000 	   57.0000 	   27.4652 
    0.3891 	   12.2100 	    7.0000 	   57.0000 	   27.4982 
    0.7095 	   12.2270 	    7.0000 	   57.0000 	   27.5322 
    0.6332 	   12.2460 	    7.0000 	   57.0000 	   27.5702 
    0.5570 	   12.2625 	    7.0000 	   57.0000 	   27.6033 
    0.5264 	   12.2780 	    7.0000 	   57.0000 	   27.6343 
    0.6638 	   12.2945 	    7.0000 	   57.0000 	   27.6673 
    0.7248 	   12.3100 	    7.0000 	   57.0000 	   27.6983 
    0.6943 	   12.3250 	    7.0000 	   57.0000 	   27.7283 
    0.6027 	   12.3405 	    7.0000 	   57.0000 	   27.7593 
    0.5722 	   12.3565 	    7.0000 	   57.0000 	   27.7913 
    0.5722 	   12.3725 	    7.0000 	   57.0000 	   27.8233 
    0.6638 	   12.3880 	    7.0000 	   57.0000 	   27.8543 
    0.5875 	   12.4030 	    7.0000 	   57.0000 	   27.8843 
    0.5112 	   12.4190 	    7.0000 	   57.0000 	   27.9163 
    0.6485 	   12.4370 	    7.0000 	   57.0000 	   27.9523 
    0.7858 	   12.4530 	    7.0000 	   57.0000 	   27.9843 
    0.4959 	   12.4685 	    7.0000 	   57.0000 	   28.0153 
    0.5417 	   12.4845 	    7.0000 	   57.0000 	   28.0473 
    0.5264 	   12.4995 	    7.0000 	   57.0000 	   28.0773 
    0.5570 	   12.5170 	    7.0000 	   57.0000 	   28.1123 
    0.4501 	   12.5320 	    7.0000 	   57.0000 	   28.1423 
    0.7095 	   12.5495 	    7.0000 	   57.0000 	   28.1773 
    0.3433 	   12.5660 	    7.0000 	   57.0000 	   28.2103 
    0.5112 	   12.5830 	    7.0000 	   57.0000 	   28.2443 
    0.6485 	   12.6000 	    7.0000 	   57.0000 	   28.2783 
    0.7401 	   12.6160 	    7.0000 	   57.0000 	   28.3103 
    0.5875 	   12.6320 	    7.0000 	   57.0000 	   28.3423 
    0.6332 	   12.6475 	    7.0000 	   57.0000 	   28.3733 
    0.6332 	   12.6630 	    7.0000 	   57.0000 	   28.4043 
    0.6027 	   12.6785 	    7.0000 	   57.0000 	   28.4353 
    0.6332 	   12.6950 	    7.0000 	   57.0000 	   28.4683 
    0.5722 	   12.7130 	    7.0000 	   57.0000 	   28.5043 
    0.5264 	   12.7295 	    7.0000 	   57.0000 	   28.5373 
    0.6485 	   12.7460 	    7.0000 	   57.0000 	   28.5703 
    0.6943 	   12.7610 	    7.0000 	   57.0000 	   28.6003 
    0.3433 	   12.7780 	    7.0000 	   57.0000 	   28.6343 
    0.7553 	   12.7980 	    7.0000 	   57.0000 	   28.6743 
    0.5722 	   12.8155 	    7.0000 	   57.0000 	   28.7093 
    0.6485 	   12.8330 	    7.0000 	   57.0000 	   28.7443 
    0.6180 	   12.8510 	    7.0000 	   57.0000 	   28.7803 
    0.6638 	   12.8680 	    7.0000 	   57.0000 	   28.8143 
    0.6180 	   12.8855 	    7.0000 	   57.0000 	   28.8493 
    0.5417 	   12.9020 	    7.0000 	   57.0000 	   28.8823 
    0.6027 	   12.9175 	    7.0000 	   57.0000 	   28.9133 
    0.5417 	   12.9330 	    7.0000 	   57.0000 	   28.9443 
    0.6332 	   12.9485 	    7.0000 	   57.0000 	   28.9753 
    0.7706 	   12.9645 	    7.0000 	   57.0000 	   29.0073 
    0.5875 	   12.9800 	    7.0000 	   57.0000 	   29.0383 
    0.6027 	   12.9960 	    7.0000 	   57.0000 	   29.0703 
    0.5417 	   13.0110 	    7.0000 	   57.0000 	   29.1003 
    0.6485 	   13.0275 	    7.0000 	   57.0000 	   29.1333 
    0.6943 	   13.0440 	    7.0000 	   57.0000 	   29.1663 
    0.6027 	   13.0590 	    7.0000 	   57.0000 	   29.1963 
    0.5570 	   13.0745 	    7.0000 	   57.0000 	   29.2273 
    0.5722 	   13.0895 	    7.0000 	   57.0000 	   29.2573 
    0.5875 	   13.1055 	    7.0000 	   57.0000 	   29.2893 
    0.6180 	   13.1210 	    7.0000 	   57.0000 	   29.3203 
    0.6027 	   13.1365 	    7.0000 	   57.0000 	   29.3514 
    0.5570 	   13.1525 	    7.0000 	   57.0000 	   29.3834 
    0.5722 	   13.1685 	    7.0000 	   57.0000 	   29.4154 
    0.5570 	   13.1850 	    7.0000 	   57.0000 	   29.4484 
    0.2670 	   13.2020 	    7.0000 	   57.0000 	   29.4824 
    0.5722 	   13.2195 	    7.0000 	   57.0000 	   29.5174 
    0.6027 	   13.2375 	    7.0000 	   57.0000 	   29.5534 
    0.6943 	   13.2550 	    7.0000 	   57.0000 	   29.5884 
    0.5417 	   13.2730 	    7.0000 	   57.0000 	   29.6244 
    0.5264 	   13.2910 	    7.0000 	   57.0000 	   29.6604 
    0.5875 	   13.3075 	    7.0000 	   57.0000 	   29.6934 
    0.5264 	   13.3225 	    7.0000 	   57.0000 	   29.7234 
    0.6180 	   13.3385 	    7.0000 	   57.0000 	   29.7554 
    0.7401 	   13.3565 	    7.0000 	   57.0000 	   29.7914 
    0.6027 	   13.3745 	    7.0000 	   57.0000 	   29.8274 
    0.5417 	   13.3910 	    7.0000 	   57.0000 	   29.8604 
    0.6485 	   13.4070 	    7.0000 	   57.0000 	   29.8924 
    0.6027 	   13.4230 	    7.0000 	   57.0000 	   29.9244 
    0.5722 	   13.4385 	    7.0000 	   57.0000 	   29.9554 
    0.5875 	   13.4540 	    7.0000 	   57.0000 	   29.9864 
    0.5875 	   13.4700 	    7.0000 	   57.0000 	   30.0184 
    0.6790 	   13.4855 	    7.0000 	   57.0000 	   30.0494 
    0.6332 	   13.5025 	    7.0000 	   57.0000 	   30.0834 
    0.6027 	   13.5180 	    7.0000 	   57.0000 	   30.1144 
    0.5112 	   13.5355 	    7.0000 	   57.0000 	   30.1494 
    0.5570 	   13.5500 	    7.0000 	   57.0000 	   30.1784 
    0.5722 	   13.5660 	    7.0000 	   57.0000 	   30.2104 
    0.6180 	   13.5840 	    7.0000 	   57.0000 	   30.2464 
    0.6638 	   13.6020 	    7.0000 	   57.0000 	   30.2824 
    0.5264 	   13.6200 	    7.0000 	   57.0000 	   30.3184 
    0.3738 	   13.6365 	    7.0000 	   57.0000 	   30.3514 
    0.5112 	   13.6535 	    7.0000 	   57.0000 	   30.3854 
    0.6180 	   13.6710 	    7.0000 	   57.0000 	   30.4204 
    0.3433 	   13.6890 	    7.0000 	   57.0000 	   30.4564 
    0.6027 	   13.7060 	    7.0000 	   57.0000 	   30.4904 
    0.5722 	   13.7235 	    7.0000 	   57.0000 	   30.5254 
    0.6180 	   13.7420 	    7.0000 	   57.0000 	   30.5624 
    0.6943 	   13.7590 	    7.0000 	   57.0000 	   30.5964 
    0.4654 	   13.7765 	    7.0000 	   57.0000 	   30.6314 
    0.5264 	   13.7955 	    7.0000 	   57.0000 	   30.6694 
    0.6332 	   13.8135 	    7.0000 	   57.0000 	   30.7054 
    0.5570 	   13.8305 	    7.0000 	   57.0000 	   30.7394 
    0.4654 	   13.8480 	    7.0000 	   57.0000 	   30.7744 
    0.6332 	   13.8660 	    7.0000 	   57.0000 	   30.8104 
    0.5570 	   13.8825 	    7.0000 	   57.0000 	   30.8434 
    0.5875 	   13.8985 	    7.0000 	   57.0000 	   30.8754 
    0.6485 	   13.9155 	    7.0000 	   57.0000 	   30.9094 
    0.7401 	   13.9320 	    7.0000 	   57.0000 	   30.9424 
    0.4044 	   13.9485 	    7.0000 	   57.0000 	   30.9754 
    0.6180 	   13.9645 	    7.0000 	   57.0000 	   31.0074 
    0.7706 	   13.9800 	    7.0000 	   57.0000 	   31.0384 
    0.6943 	   13.9960 	    7.0000 	   57.0000 	   31.0704 
    0.5417 	   14.0120 	    7.0000 	   57.0000 	   31.1025 
    0.7095 	   14.0275 	    7.0000 	   57.0000 	   31.1335 
    0.5112 	   14.0460 	    7.0000 	   57.0000 	   31.1705 
    0.6943 	   14.0610 	    7.0000 	   57.0000 	   31.2005 
    0.5722 	   14.0770 	    7.0000 	   57.0000 	   31.2325 
    0.5722 	   14.0935 	    7.0000 	   57.0000 	   31.2655 
    0.6180 	   14.1110 	    7.0000 	   57.0000 	   31.3005 
    0.4196 	   14.1285 	    7.0000 	   57.0000 	   31.3355 
    0.5722 	   14.1460 	    7.0000 	   57.0000 	   31.3705 
    0.6485 	   14.1630 	    7.0000 	   57.0000 	   31.4045 
    0.5264 	   14.1815 	    7.0000 	   57.0000 	   31.4415 
    0.2976 	   14.1995 	    7.0000 	   57.0000 	   31.4775 
    0.5722 	   14.2175 	    7.0000 	   57.0000 	   31.5135 
    0.5417 	   14.2355 	    7.0000 	   57.0000 	   31.5495 
    0.5570 	   14.2530 	    7.0000 	   57.0000 	   31.5845 
    0.5722 	   14.2705 	    7.0000 	   57.0000 	   31.6195 
    0.7553 	   14.2910 	    7.0000 	   57.0000 	   31.6605 
    0.6943 	   14.3075 	    7.0000 	   57.0000 	   31.6935 
    0.2060 	   14.3250 	    7.0000 	   57.0000 	   31.7285 
    0.5722 	   14.3425 	    7.0000 	   57.0000 	   31.7635 
    0.6638 	   14.3610 	    7.0000 	   57.0000 	   31.8005 
    0.5112 	   14.3795 	    7.0000 	   57.0000 	   31.8375 
    0.6485 	   14.3975 	    7.0000 	   57.0000 	   31.8735 
    0.6943 	   14.4140 	    7.0000 	   57.0000 	   31.9065 
    0.6332 	   14.4320 	    7.0000 	   57.0000 	   31.9425 
    0.6790 	   14.4485 	    7.0000 	   57.0000 	   31.9755 
    0.8011 	   14.4650 	    7.0000 	   57.0000 	   32.0085 
    0.8011 	   14.4815 	    7.0000 	   57.0000 	   32.0415 
    0.6790 	   14.4990 	    7.0000 	   57.0000 	   32.0765 
    0.6027 	   14.5145 	    7.0000 	   57.0000 	   32.1075 
    0.6485 	   14.5300 	    7.0000 	   57.0000 	   32.1385 
    0.5570 	   14.5495 	    7.0000 	   57.0000 	   32.1775 
    0.3738 	   14.5645 	    7.0000 	   57.0000 	   32.2075 
    0.7248 	   14.5795 	    7.0000 	   57.0000 	   32.2375 
    0.4044 	   14.5960 	    7.0000 	   57.0000 	   32.2705 
    0.3433 	   14.6140 	    7.0000 	   57.0000 	   32.3065 
    0.7553 	   14.6320 	    7.0000 	   57.0000 	   32.3425 
    0.7095 	   14.6495 	    7.0000 	   57.0000 	   32.3775 
    0.6943 	   14.6675 	    7.0000 	   57.0000 	   32.4135 
    0.6180 	   14.6860 	    7.0000 	   57.0000 	   32.4505 
    0.5570 	   14.7040 	    7.0000 	   57.0000 	   32.4865 
    0.6332 	   14.7215 	    7.0000 	   57.0000 	   32.5215 
    0.5570 	   14.7395 	    7.0000 	   57.0000 	   32.5575 
    0.6943 	   14.7575 	    7.0000 	   57.0000 	   32.5935 
    0.6332 	   14.7755 	    7.0000 	   57.0000 	   32.6295 
    0.7401 	   14.7950 	    7.0000 	   57.0000 	   32.6685 
    0.5264 	   14.8135 	    7.0000 	   57.0000 	   32.7055 
    0.4044 	   14.8310 	    7.0000 	   57.0000 	   32.7405 
    0.5875 	   14.8485 	    7.0000 	   57.0000 	   32.7755 
    0.6027 	   14.8655 	    7.0000 	   57.0000 	   32.8095 
    0.6790 	   14.8825 	    7.0000 	   57.0000 	   32.8436 
    0.6180 	   14.9005 	    7.0000 	   57.0000 	   32.8796 
    0.6485 	   14.9190 	    7.0000 	   57.0000 	   32.9166 
    0.7095 	   14.9355 	    7.0000 	   57.0000 	   32.9496 
    0.5722 	   14.9515 	    7.0000 	   57.0000 	   32.9816 
    0.6332 	   14.9690 	    7.0000 	   57.0000 	   33.0166 
    0.4959 	   14.9860 	    7.0000 	   57.0000 	   33.0506 
    0.6332 	   15.0035 	    7.0000 	   57.0000 	   33.0856 
    0.5264 	   15.0200 	    7.0000 	   57.0000 	   33.1186 
    0.6180 	   15.0375 	    7.0000 	   57.0000 	   33.1536 
    0.6180 	   15.0535 	    7.0000 	   57.0000 	   33.1856 
    0.5570 	   15.0690 	    7.0000 	   57.0000 	   33.2166 
    0.5570 	   15.0850 	    7.0000 	   57.0000 	   33.2486 
    0.6180 	   15.1020 	    7.0000 	   57.0000 	   33.2826 
    0.6790 	   15.1200 	    7.0000 	   57.0000 	   33.3186 
    0.5417 	   15.1390 	    7.0000 	   57.0000 	   33.3566 
    0.6027 	   15.1570 	    7.0000 	   57.0000 	   33.3926 
    0.3586 	   15.1745 	    7.0000 	   57.0000 	   33.4276 
    0.6180 	   15.1925 	    7.0000 	   57.0000 	   33.4636 
    0.5112 	   15.2110 	    7.0000 	   57.0000 	   33.5006 
    0.7706 	   15.2280 	    7.0000 	   57.0000 	   33.5346 
    0.7401 	   15.2465 	    7.0000 	   57.0000 	   33.5716 
    0.4959 	   15.2635 	    7.0000 	   57.0000 	   33.6056 
    0.4807 	   15.2815 	    7.0000 	   57.0000 	   33.6416 
    0.6332 	   15.3000 	    7.0000 	   57.0000 	   33.6786 
    0.7401 	   15.3175 	    7.0000 	   57.0000 	   33.7136 
    0.6485 	   15.3360 	    7.0000 	   57.0000 	   33.7506 
    0.5722 	   15.3535 	    7.0000 	   57.0000 	   33.7856 
    0.5264 	   15.3725 	    7.0000 	   57.0000 	   33.8236 
    0.6332 	   15.3905 	    7.0000 	   57.0000 	   33.8596 
    0.6027 	   15.4085 	    7.0000 	   57.0000 	   33.8956 
    0.5875 	   15.4270 	    7.0000 	   57.0000 	   33.9326 
    0.5875 	   15.4450 	    7.0000 	   57.0000 	   33.9686 
    0.4959 	   15.4620 	    7.0000 	   57.0000 	   34.0026 
    0.6943 	   15.4795 	    7.0000 	   57.0000 	   34.0376 
    0.5722 	   15.4960 	    7.0000 	   57.0000 	   34.0706 
    0.7706 	   15.5125 	    7.0000 	   57.0000 	   34.1036 
    0.6180 	   15.5285 	    7.0000 	   57.0000 	   34.1356 
    0.5570 	   15.5450 	    7.0000 	   57.0000 	   34.1686 
    0.7248 	   15.5605 	    7.0000 	   57.0000 	   34.1996 
    0.6332 	   15.5765 	    7.0000 	   57.0000 	   34.2316 
    0.6638 	   15.5920 	    7.0000 	   57.0000 	   34.2626 
    0.5417 	   15.6080 	    7.0000 	   57.0000 	   34.2946 
    0.7248 	   15.6235 	    7.0000 	   57.0000 	   34.3256 
    0.6027 	   15.6390 	    7.0000 	   57.0000 	   34.3566 
    0.6027 	   15.6550 	    7.0000 	   57.0000 	   34.3886 
    0.6790 	   15.6705 	    7.0000 	   57.0000 	   34.4196 
    0.5417 	   15.6880 	    7.0000 	   57.0000 	   34.4546 
    0.6027 	   15.7050 	    7.0000 	   57.0000 	   34.4886 
    0.6332 	   15.7225 	    7.0000 	   57.0000 	   34.5236 
    0.4959 	   15.7405 	    7.0000 	   57.0000 	   34.5596 
    0.6332 	   15.7580 	    7.0000 	   57.0000 	   34.5947 
    0.6332 	   15.7755 	    7.0000 	   57.0000 	   34.6297 
    0.4654 	   15.7935 	    7.0000 	   57.0000 	   34.6657 
    0.7248 	   15.8110 	    7.0000 	   57.0000 	   34.7007 
    0.5875 	   15.8295 	    7.0000 	   57.0000 	   34.7377 
    0.5875 	   15.8465 	    7.0000 	   57.0000 	   34.7717 
    0.4349 	   15.8635 	    7.0000 	   57.0000 	   34.8057 
    0.3281 	   15.8825 	    7.0000 	   57.0000 	   34.8437 
    0.7401 	   15.8995 	    7.0000 	   57.0000 	   34.8777 
    0.6485 	   15.9160 	    7.0000 	   57.0000 	   34.9107 
    0.6943 	   15.9315 	    7.0000 	   57.0000 	   34.9417 
    0.5570 	   15.9480 	    7.0000 	   57.0000 	   34.9747 
    0.7401 	   15.9635 	    7.0000 	   57.0000 	   35.0057 
    0.7401 	   15.9795 	    7.0000 	   57.0000 	   35.0377 
    0.5112 	   15.9955 	    7.0000 	   57.0000 	   35.0697 
    0.5875 	   16.0120 	    7.0000 	   57.0000 	   35.1027 
    0.5570 	   16.0290 	    7.0000 	   57.0000 	   35.1367 
    0.5570 	   16.0460 	    7.0000 	   57.0000 	   35.1707 
    0.5722 	   16.0625 	    7.0000 	   57.0000 	   35.2037 
    0.5112 	   16.0775 	    7.0000 	   57.0000 	   35.2337 
    0.7095 	   16.0930 	    7.0000 	   57.0000 	   35.2647 
    0.6485 	   16.1090 	    7.0000 	   57.0000 	   35.2967 
    0.4959 	   16.1255 	    7.0000 	   57.0000 	   35.3297 
    0.8164 	   16.1420 	    7.0000 	   57.0000 	   35.3627 
    0.5875 	   16.1580 	    7.0000 	   57.0000 	   35.3947 
    0.6790 	   16.1735 	    7.0000 	   57.0000 	   35.4257 
    0.5875 	   16.1890 	    7.0000 	   57.0000 	   35.4567 
    0.6638 	   16.2050 	    7.0000 	   57.0000 	   35.4887 
    0.6485 	   16.2215 	    7.0000 	   57.0000 	   35.5217 
    0.6027 	   16.2390 	    7.0000 	   57.0000 	   35.5567 
    0.4654 	   16.2570 	    7.0000 	   57.0000 	   35.5927 
    0.6943 	   16.2725 	    7.0000 	   57.0000 	   35.6237 
    0.7095 	   16.2900 	    7.0000 	   57.0000 	   35.6587 
    0.4654 	   16.3075 	    7.0000 	   57.0000 	   35.6937 
    0.7095 	   16.3250 	    7.0000 	   57.0000 	   35.7287 
    0.5112 	   16.3435 	    7.0000 	   57.0000 	   35.7657 
    0.7401 	   16.3610 	    7.0000 	   57.0000 	   35.8007 
    0.6027 	   16.3795 	    7.0000 	   57.0000 	   35.8377 
    0.5722 	   16.3970 	    7.0000 	   57.0000 	   35.8727 
    0.6943 	   16.4155 	    7.0000 	   57.0000 	   35.9097 
    0.5875 	   16.4325 	    7.0000 	   57.0000 	   35.9437 
    0.7401 	   16.4505 	    7.0000 	   57.0000 	   35.9797 
    0.5570 	   16.4670 	    7.0000 	   57.0000 	   36.0127 
    0.5722 	   16.4835 	    7.0000 	   57.0000 	   36.0457 
    0.6790 	   16.4995 	    7.0000 	   57.0000 	   36.0777 
    0.7095 	   16.5165 	    7.0000 	   57.0000 	   36.1117 
    0.6027 	   16.5325 	    7.0000 	   57.0000 	   36.1437 
    0.7095 	   16.5500 	    7.0000 	   57.0000 	   36.1787 
    0.5875 	   16.5655 	    7.0000 	   57.0000 	   36.2097 
    0.6790 	   16.5815 	    7.0000 	   57.0000 	   36.2417 
    0.6485 	   16.5970 	    7.0000 	   57.0000 	   36.2727 
    0.6485 	   16.6145 	    7.0000 	   57.0000 	   36.3077 
    0.6485 	   16.6330 	    7.0000 	   57.0000 	   36.3447 
    0.5112 	   16.6510 	    7.0000 	   57.0000 	   36.3808 
    0.6638 	   16.6690 	    7.0000 	   57.0000 	   36.4168 
    0.6485 	   16.6860 	    7.0000 	   57.0000 	   36.4508 
    0.6180 	   16.7025 	    7.0000 	   57.0000 	   36.4838 
    0.4807 	   16.7185 	    7.0000 	   57.0000 	   36.5158 
    0.6180 	   16.7350 	    7.0000 	   57.0000 	   36.5488 
    0.6638 	   16.7515 	    7.0000 	   57.0000 	   36.5818 
    0.5112 	   16.7680 	    7.0000 	   57.0000 	   36.6148 
    0.7095 	   16.7845 	    7.0000 	   57.0000 	   36.6478 
    0.6638 	   16.8015 	    7.0000 	   57.0000 	   36.6818 
    0.2976 	   16.8185 	    7.0000 	   57.0000 	   36.7158 
    0.6790 	   16.8350 	    7.0000 	   57.0000 	   36.7488 
    0.7858 	   16.8515 	    7.0000 	   57.0000 	   36.7818 
    0.5875 	   16.8685 	    7.0000 	   57.0000 	   36.8158 
    0.4044 	   16.8850 	    7.0000 	   57.0000 	   36.8488 
    0.6790 	   16.9030 	    7.0000 	   57.0000 	   36.8848 
    0.3891 	   16.9210 	    7.0000 	   57.0000 	   36.9208 
    0.8011 	   16.9395 	    7.0000 	   57.0000 	   36.9578 
    0.7095 	   16.9565 	    7.0000 	   57.0000 	   36.9918 
    0.7401 	   16.9735 	    7.0000 	   57.0000 	   37.0258 
    0.5875 	   16.9905 	    7.0000 	   57.0000 	   37.0598 
    0.7858 	   17.0065 	    7.0000 	   57.0000 	   37.0918 
    0.6332 	   17.0230 	    7.0000 	   57.0000 	   37.1248 
    0.7553 	   17.0420 	    7.0000 	   57.0000 	   37.1628 
    0.7248 	   17.0575 	    7.0000 	   57.0000 	   37.1938 
    0.7401 	   17.0740 	    7.0000 	   57.0000 	   37.2268 
    0.6332 	   17.0895 	    7.0000 	   57.0000 	   37.2578 
    0.6790 	   17.1055 	    7.0000 	   57.0000 	   37.2898 
    0.8011 	   17.1210 	    7.0000 	   57.0000 	   37.3208 
    0.7401 	   17.1375 	    7.0000 	   57.0000 	   37.3538 
    0.7553 	   17.1535 	    7.0000 	   57.0000 	   37.3858 
    0.5875 	   17.1705 	    7.0000 	   57.0000 	   37.4198 
    0.7401 	   17.1865 	    7.0000 	   57.0000 	   37.4518 
    0.6180 	   17.2030 	    7.0000 	   57.0000 	   37.4848 
    0.7401 	   17.2195 	    7.0000 	   57.0000 	   37.5178 
    0.6485 	   17.2360 	    7.0000 	   57.0000 	   37.5508 
    0.7248 	   17.2530 	    7.0000 	   57.0000 	   37.5848 
    0.5722 	   17.2725 	    7.0000 	   57.0000 	   37.6238 
    0.6485 	   17.2905 	    7.0000 	   57.0000 	   37.6598 
    0.8621 	   17.3080 	    7.0000 	   57.0000 	   37.6948 
    0.6638 	   17.3265 	    7.0000 	   57.0000 	   37.7318 
    0.6638 	   17.3450 	    7.0000 	   57.0000 	   37.7688 
    0.6180 	   17.3635 	    7.0000 	   57.0000 	   37.8058 
    0.7095 	   17.3820 	    7.0000 	   57.0000 	   37.8428 
    0.6790 	   17.4000 	    7.0000 	   57.0000 	   37.8788 
    0.6943 	   17.4180 	    7.0000 	   57.0000 	   37.9148 
    0.3433 	   17.4350 	    7.0000 	   57.0000 	   37.9488 
    0.7248 	   17.4515 	    7.0000 	   57.0000 	   37.9818 
    0.7553 	   17.4685 	    7.0000 	   57.0000 	   38.0158 
    0.6332 	   17.4855 	    7.0000 	   57.0000 	   38.0498 
    0.6485 	   17.5025 	    7.0000 	   57.0000 	   38.0839 
    0.5570 	   17.5195 	    7.0000 	   57.0000 	   38.1179 
    0.6943 	   17.5375 	    7.0000 	   57.0000 	   38.1539 
    0.6943 	   17.5535 	    7.0000 	   57.0000 	   38.1859 
    0.7095 	   17.5695 	    7.0000 	   57.0000 	   38.2179 
    0.6180 	   17.5870 	    7.0000 	   57.0000 	   38.2529 
    0.6180 	   17.6030 	    7.0000 	   57.0000 	   38.2849 
    0.7858 	   17.6210 	    7.0000 	   57.0000 	   38.3209 
    0.5875 	   17.6400 	    7.0000 	   57.0000 	   38.3589 
    0.3891 	   17.6585 	    7.0000 	   57.0000 	   38.3959 
    0.7248 	   17.6770 	    7.0000 	   57.0000 	   38.4329 
    0.5264 	   17.6965 	    7.0000 	   57.0000 	   38.4719 
    0.6180 	   17.7160 	    7.0000 	   57.0000 	   38.5109 
    0.6332 	   17.7345 	    7.0000 	   57.0000 	   38.5479 
    0.6485 	   17.7530 	    7.0000 	   57.0000 	   38.5849 
    0.5875 	   17.7715 	    7.0000 	   57.0000 	   38.6219 
    0.6638 	   17.7905 	    7.0000 	   57.0000 	   38.6599 
    0.8469 	   17.8080 	    7.0000 	   57.0000 	   38.6949 
    0.7401 	   17.8270 	    7.0000 	   57.0000 	   38.7329 
    0.5722 	   17.8455 	    7.0000 	   57.0000 	   38.7699 
    0.6790 	   17.8640 	    7.0000 	   57.0000 	   38.8069 
    0.8011 	   17.8825 	    7.0000 	   57.0000 	   38.8439 
    0.2518 	   17.9010 	    7.0000 	   57.0000 	   38.8809 
    0.6638 	   17.9200 	    7.0000 	   57.0000 	   38.9189 
    0.7553 	   17.9385 	    7.0000 	   57.0000 	   38.9559 
    0.6485 	   17.9555 	    7.0000 	   57.0000 	   38.9899 
    0.6485 	   17.9730 	    7.0000 	   57.0000 	   39.0249 
    0.6027 	   17.9900 	    7.0000 	   57.0000 	   39.0589 
    0.5570 	   18.0075 	    7.0000 	   57.0000 	   39.0939 
    0.6485 	   18.0240 	    7.0000 	   57.0000 	   39.1269 
    0.8011 	   18.0415 	    7.0000 	   57.0000 	   39.1619 
    0.7095 	   18.0580 	    7.0000 	   57.0000 	   39.1949 
    0.7553 	   18.0740 	    7.0000 	   57.0000 	   39.2269 
    0.5417 	   18.0910 	    7.0000 	   57.0000 	   39.2609 
    0.6027 	   18.1070 	    7.0000 	   57.0000 	   39.2929 
    0.8011 	   18.1235 	    7.0000 	   57.0000 	   39.3259 
    0.7706 	   18.1400 	    7.0000 	   57.0000 	   39.3589 
    0.6638 	   18.1565 	    7.0000 	   57.0000 	   39.3919 
    0.6790 	   18.1725 	    7.0000 	   57.0000 	   39.4239 
    0.8164 	   18.1890 	    7.0000 	   57.0000 	   39.4569 
    0.5722 	   18.2055 	    7.0000 	   57.0000 	   39.4899 
    0.6638 	   18.2220 	    7.0000 	   57.0000 	   39.5229 
    0.6332 	   18.2395 	    7.0000 	   57.0000 	   39.5579 
    0.5722 	   18.2570 	    7.0000 	   57.0000 	   39.5929 
    0.6332 	   18.2750 	    7.0000 	   57.0000 	   39.6289 
    0.7401 	   18.2920 	    7.0000 	   57.0000 	   39.6629 
    0.5570 	   18.3085 	    7.0000 	   57.0000 	   39.6959 
    0.6943 	   18.3250 	    7.0000 	   57.0000 	   39.7289 
    0.6790 	   18.3415 	    7.0000 	   57.0000 	   39.7619 
    0.5875 	   18.3580 	    7.0000 	   57.0000 	   39.7949 
    0.6943 	   18.3745 	    7.0000 	   57.0000 	   39.8279 
    0.4349 	   18.3915 	    7.0000 	   57.0000 	   39.8619 
    0.6485 	   18.4075 	    7.0000 	   57.0000 	   39.8940 
    0.5570 	   18.4245 	    7.0000 	   57.0000 	   39.9280 
    0.6332 	   18.4410 	    7.0000 	   57.0000 	   39.9610 
    0.5875 	   18.4575 	    7.0000 	   57.0000 	   39.9940 
    0.6332 	   18.4740 	    7.0000 	   57.0000 	   40.0270 
    0.4959 	   18.4905 	    7.0000 	   57.0000 	   40.0600 
    0.5570 	   18.5075 	    7.0000 	   57.0000 	   40.0940 
    0.7401 	   18.5245 	    7.0000 	   57.0000 	   40.1280 
    0.6485 	   18.5430 	    7.0000 	   57.0000 	   40.1650 
    0.2823 	   18.5595 	    7.0000 	   57.0000 	   40.1980 
    0.6180 	   18.5755 	    7.0000 	   57.0000 	   40.2300 
    0.6638 	   18.5920 	    7.0000 	   57.0000 	   40.2630 
    0.7095 	   18.6090 	    7.0000 	   57.0000 	   40.2970 
    0.7401 	   18.6275 	    7.0000 	   57.0000 	   40.3340 
    0.7401 	   18.6465 	    7.0000 	   57.0000 	   40.3720 
    0.6027 	   18.6645 	    7.0000 	   57.0000 	   40.4080 
    0.4654 	   18.6835 	    7.0000 	   57.0000 	   40.4460 
    0.9384 	   18.7020 	    7.0000 	   57.0000 	   40.4830 
    0.6027 	   18.7200 	    7.0000 	   57.0000 	   40.5190 
    0.4349 	   18.7405 	    7.0000 	   57.0000 	   40.5600 
    0.7401 	   18.7585 	    7.0000 	   57.0000 	   40.5960 
    0.7248 	   18.7770 	    7.0000 	   57.0000 	   40.6330 
    0.6485 	   18.7940 	    7.0000 	   57.0000 	   40.6670 
    0.6943 	   18.8130 	    7.0000 	   57.0000 	   40.7050 
    0.6638 	   18.8315 	    7.0000 	   57.0000 	   40.7420 
    0.7706 	   18.8510 	    7.0000 	   57.0000 	   40.7810 
    0.4044 	   18.8690 	    7.0000 	   57.0000 	   40.8170 
    0.7248 	   18.8880 	    7.0000 	   57.0000 	   40.8550 
    0.8316 	   18.9055 	    7.0000 	   57.0000 	   40.8900 
    0.6485 	   18.9245 	    7.0000 	   57.0000 	   40.9280 
    0.8164 	   18.9415 	    7.0000 	   57.0000 	   40.9620 
    0.8927 	   18.9575 	    7.0000 	   57.0000 	   40.9940 
    0.5875 	   18.9740 	    7.0000 	   57.0000 	   41.0270 
    0.8164 	   18.9905 	    7.0000 	   57.0000 	   41.0600 
    0.6638 	   19.0085 	    7.0000 	   57.0000 	   41.0960 
    0.4654 	   19.0255 	    7.0000 	   57.0000 	   41.1300 
    0.6027 	   19.0450 	    7.0000 	   57.0000 	   41.1690 
    0.6790 	   19.0615 	    7.0000 	   57.0000 	   41.2020 
    0.6790 	   19.0775 	    7.0000 	   57.0000 	   41.2340 
    0.5570 	   19.0940 	    7.0000 	   57.0000 	   41.2670 
    0.8164 	   19.1110 	    7.0000 	   57.0000 	   41.3010 
    0.6485 	   19.1275 	    7.0000 	   57.0000 	   41.3340 
    0.6790 	   19.1445 	    7.0000 	   57.0000 	   41.3680 
    0.7706 	   19.1615 	    7.0000 	   57.0000 	   41.4020 
    0.5875 	   19.1780 	    7.0000 	   57.0000 	   41.4350 
    0.6332 	   19.1950 	    7.0000 	   57.0000 	   41.4690 
    0.6027 	   19.2120 	    7.0000 	   57.0000 	   41.5030 
    0.6790 	   19.2290 	    7.0000 	   57.0000 	   41.5370 
    0.7706 	   19.2485 	    7.0000 	   57.0000 	   41.5760 
    0.7401 	   19.2665 	    7.0000 	   57.0000 	   41.6121 
    0.6943 	   19.2855 	    7.0000 	   57.0000 	   41.6501 
    0.6332 	   19.3045 	    7.0000 	   57.0000 	   41.6881 
    0.6943 	   19.3235 	    7.0000 	   57.0000 	   41.7261 
    0.8164 	   19.3420 	    7.0000 	   57.0000 	   41.7631 
    0.6638 	   19.3600 	    7.0000 	   57.0000 	   41.7991 
    0.8316 	   19.3795 	    7.0000 	   57.0000 	   41.8381 
    0.6790 	   19.3985 	    7.0000 	   57.0000 	   41.8761 
    0.6180 	   19.4170 	    7.0000 	   57.0000 	   41.9131 
    0.7706 	   19.4360 	    7.0000 	   57.0000 	   41.9511 
    0.7706 	   19.4555 	    7.0000 	   57.0000 	   41.9901 
    0.7248 	   19.4735 	    7.0000 	   57.0000 	   42.0261 
    0.9079 	   19.4905 	    7.0000 	   57.0000 	   42.0601 
    0.5875 	   19.5090 	    7.0000 	   57.0000 	   42.0971 
    0.7095 	   19.5260 	    7.0000 	   57.0000 	   42.1311 
    0.7706 	   19.5455 	    7.0000 	   57.0000 	   42.1701 
    0.8011 	   19.5625 	    7.0000 	   57.0000 	   42.2041 
    0.7858 	   19.5785 	    7.0000 	   57.0000 	   42.2361 
    0.8011 	   19.5945 	    7.0000 	   57.0000 	   42.2681 
    0.6638 	   19.6115 	    7.0000 	   57.0000 	   42.3021 
    0.7248 	   19.6285 	    7.0000 	   57.0000 	   42.3361 
    0.8011 	   19.6450 	    7.0000 	   57.0000 	   42.3691 
    0.7706 	   19.6630 	    7.0000 	   57.0000 	   42.4051 
    0.5875 	   19.6825 	    7.0000 	   57.0000 	   42.4441 
    0.6943 	   19.7010 	    7.0000 	   57.0000 	   42.4811 
    0.5112 	   19.7200 	    7.0000 	   57.0000 	   42.5191 
    0.7401 	   19.7400 	    7.0000 	   57.0000 	   42.5591 
    0.7401 	   19.7595 	    7.0000 	   57.0000 	   42.5981 
    0.6485 	   19.7780 	    7.0000 	   57.0000 	   42.6351 
    0.7095 	   19.7980 	    7.0000 	   57.0000 	   42.6751 
    0.7401 	   19.8165 	    7.0000 	   57.0000 	   42.7121 
    0.7095 	   19.8350 	    7.0000 	   57.0000 	   42.7491 
    0.6332 	   19.8540 	    7.0000 	   57.0000 	   42.7871 
    0.4044 	   19.8735 	    7.0000 	   57.0000 	   42.8261 
    0.7401 	   19.8915 	    7.0000 	   57.0000 	   42.8621 
    0.6943 	   19.9110 	    7.0000 	   57.0000 	   42.9011 
    0.8011 	   19.9305 	    7.0000 	   57.0000 	   42.9401 
    0.7095 	   19.9495 	    7.0000 	   57.0000 	   42.9781 
    0.7706 	   19.9670 	    7.0000 	   57.0000 	   43.0131 
    0.6943 	   19.9845 	    7.0000 	   57.0000 	   43.0481 
    0.5417 	   20.0020 	    7.0000 	   57.0000 	   43.0831 
    0.6332 	   20.0200 	    7.0000 	   57.0000 	   43.1191 
    0.6790 	   20.0400 	    7.0000 	   57.0000 	   43.1591 
    0.4044 	   20.0575 	    7.0000 	   57.0000 	   43.1941 
    0.7095 	   20.0735 	    7.0000 	   57.0000 	   43.2261 
    0.6485 	   20.0900 	    7.0000 	   57.0000 	   43.2591 
    0.4959 	   20.1075 	    7.0000 	   57.0000 	   43.2941 
    0.6027 	   20.1255 	    7.0000 	   57.0000 	   43.3302 
    0.6790 	   20.1440 	    7.0000 	   57.0000 	   43.3672 
    0.6180 	   20.1635 	    7.0000 	   57.0000 	   43.4062 
    0.7858 	   20.1815 	    7.0000 	   57.0000 	   43.4422 
    0.7095 	   20.2000 	    7.0000 	   57.0000 	   43.4792 
    0.5570 	   20.2195 	    7.0000 	   57.0000 	   43.5182 
    0.6638 	   20.2380 	    7.0000 	   57.0000 	   43.5552 
    0.6485 	   20.2565 	    7.0000 	   57.0000 	   43.5922 
    0.6332 	   20.2750 	    7.0000 	   57.0000 	   43.6292 
    0.7095 	   20.2930 	    7.0000 	   57.0000 	   43.6652 
    0.8164 	   20.3110 	    7.0000 	   57.0000 	   43.7012 
    0.6027 	   20.3305 	    7.0000 	   57.0000 	   43.7402 
    0.8469 	   20.3495 	    7.0000 	   57.0000 	   43.7782 
    0.6638 	   20.3680 	    7.0000 	   57.0000 	   43.8152 
    0.6180 	   20.3860 	    7.0000 	   57.0000 	   43.8512 
    0.6332 	   20.4060 	    7.0000 	   57.0000 	   43.8912 
    0.8164 	   20.4250 	    7.0000 	   57.0000 	   43.9292 
    0.7401 	   20.4445 	    7.0000 	   57.0000 	   43.9682 
    0.3281 	   20.4620 	    7.0000 	   57.0000 	   44.0032 
    0.6943 	   20.4805 	    7.0000 	   57.0000 	   44.0402 
    0.8621 	   20.4985 	    7.0000 	   57.0000 	   44.0762 
    0.6332 	   20.5175 	    7.0000 	   57.0000 	   44.1142 
    0.7095 	   20.5350 	    7.0000 	   57.0000 	   44.1492 
    0.6485 	   20.5540 	    7.0000 	   57.0000 	   44.1872 
    0.6638 	   20.5710 	    7.0000 	   57.0000 	   44.2212 
    0.8011 	   20.5880 	    7.0000 	   57.0000 	   44.2552 
    0.8469 	   20.6060 	    7.0000 	   57.0000 	   44.2912 
    0.6943 	   20.6245 	    7.0000 	   57.0000 	   44.3282 
    0.9079 	   20.6410 	    7.0000 	   57.0000 	   44.3612 
    0.6790 	   20.6595 	    7.0000 	   57.0000 	   44.3982 
    0.6485 	   20.6780 	    7.0000 	   57.0000 	   44.4352 
    0.7095 	   20.6985 	    7.0000 	   57.0000 	   44.4762 
    0.7706 	   20.7175 	    7.0000 	   57.0000 	   44.5142 
    0.7553 	   20.7365 	    7.0000 	   57.0000 	   44.5522 
    0.7095 	   20.7560 	    7.0000 	   57.0000 	   44.5912 
    0.7401 	   20.7745 	    7.0000 	   57.0000 	   44.6282 
    0.7095 	   20.7925 	    7.0000 	   57.0000 	   44.6642 
    0.4044 	   20.8110 	    7.0000 	   57.0000 	   44.7012 
    0.8011 	   20.8300 	    7.0000 	   57.0000 	   44.7392 
    0.7401 	   20.8500 	    7.0000 	   57.0000 	   44.7792 
    0.6638 	   20.8695 	    7.0000 	   57.0000 	   44.8182 
    0.8621 	   20.8890 	    7.0000 	   57.0000 	   44.8572 
    0.6485 	   20.9075 	    7.0000 	   57.0000 	   44.8942 
    0.6027 	   20.9260 	    7.0000 	   57.0000 	   44.9312 
    0.7553 	   20.9445 	    7.0000 	   57.0000 	   44.9682 
    0.8011 	   20.9645 	    7.0000 	   57.0000 	   45.0072 
    0.8316 	   20.9820 	    7.0000 	   57.0000 	   45.0422 
    0.5722 	   20.9995 	    7.0000 	   57.0000 	   45.0772 
    0.6638 	   21.0165 	    7.0000 	   57.0000 	   45.1113 
    0.7401 	   21.0340 	    7.0000 	   57.0000 	   45.1463 
    0.4501 	   21.0530 	    7.0000 	   57.0000 	   45.1843 
    0.8469 	   21.0695 	    7.0000 	   57.0000 	   45.2173 
    0.8164 	   21.0860 	    7.0000 	   57.0000 	   45.2503 
    0.6180 	   21.1030 	    7.0000 	   57.0000 	   45.2843 
    0.6485 	   21.1190 	    7.0000 	   57.0000 	   45.3163 
    0.5417 	   21.1375 	    7.0000 	   57.0000 	   45.3533 
    0.7553 	   21.1550 	    7.0000 	   57.0000 	   45.3883 
    0.6790 	   21.1730 	    7.0000 	   57.0000 	   45.4243 
    0.6943 	   21.1915 	    7.0000 	   57.0000 	   45.4613 
    0.6790 	   21.2105 	    7.0000 	   57.0000 	   45.4993 
    0.6943 	   21.2280 	    7.0000 	   57.0000 	   45.5343 
    0.8164 	   21.2480 	    7.0000 	   57.0000 	   45.5743 
    0.8316 	   21.2670 	    7.0000 	   57.0000 	   45.6123 
    0.5875 	   21.2865 	    7.0000 	   57.0000 	   45.6513 
    0.9537 	   21.3055 	    7.0000 	   57.0000 	   45.6893 
    0.8164 	   21.3245 	    7.0000 	   57.0000 	   45.7273 
    0.8164 	   21.3430 	    7.0000 	   57.0000 	   45.7643 
    0.6485 	   21.3615 	    7.0000 	   57.0000 	   45.8013 
    0.6485 	   21.3815 	    7.0000 	   57.0000 	   45.8413 
    0.6180 	   21.4005 	    7.0000 	   57.0000 	   45.8793 
    0.7553 	   21.4180 	    7.0000 	   57.0000 	   45.9143 
    0.6638 	   21.4370 	    7.0000 	   57.0000 	   45.9523 
    0.8164 	   21.4560 	    7.0000 	   57.0000 	   45.9903 
    0.7095 	   21.4740 	    7.0000 	   57.0000 	   46.0263 
    0.7858 	   21.4925 	    7.0000 	   57.0000 	   46.0633 
    0.8164 	   21.5095 	    7.0000 	   57.0000 	   46.0973 
    0.5264 	   21.5270 	    7.0000 	   57.0000 	   46.1323 
    0.6027 	   21.5455 	    7.0000 	   57.0000 	   46.1693 
    0.6943 	   21.5630 	    7.0000 	   57.0000 	   46.2043 
    0.8164 	   21.5800 	    7.0000 	   57.0000 	   46.2383 
    0.6638 	   21.5975 	    7.0000 	   57.0000 	   46.2733 
    0.7401 	   21.6140 	    7.0000 	   57.0000 	   46.3063 
    0.6638 	   21.6310 	    7.0000 	   57.0000 	   46.3403 
    0.6638 	   21.6490 	    7.0000 	   57.0000 	   46.3763 
    0.6790 	   21.6665 	    7.0000 	   57.0000 	   46.4113 
    0.6790 	   21.6835 	    7.0000 	   57.0000 	   46.4453 
    0.7706 	   21.7025 	    7.0000 	   57.0000 	   46.4833 
    0.7706 	   21.7215 	    7.0000 	   57.0000 	   46.5213 
    0.8316 	   21.7405 	    7.0000 	   57.0000 	   46.5593 
    0.7858 	   21.7600 	    7.0000 	   57.0000 	   46.5983 
    0.5722 	   21.7795 	    7.0000 	   57.0000 	   46.6373 
    0.7553 	   21.7975 	    7.0000 	   57.0000 	   46.6733 
    0.6638 	   21.8150 	    7.0000 	   57.0000 	   46.7083 
    0.6943 	   21.8325 	    7.0000 	   57.0000 	   46.7433 
    0.3586 	   21.8495 	    7.0000 	   57.0000 	   46.7773 
    0.6180 	   21.8665 	    7.0000 	   57.0000 	   46.8113 
    0.6638 	   21.8840 	    7.0000 	   57.0000 	   46.8464 
    0.7553 	   21.9015 	    7.0000 	   57.0000 	   46.8814 
    0.4501 	   21.9190 	    7.0000 	   57.0000 	   46.9164 
    0.8011 	   21.9365 	    7.0000 	   57.0000 	   46.9514 
    0.8011 	   21.9540 	    7.0000 	   57.0000 	   46.9864 
    0.8469 	   21.9710 	    7.0000 	   57.0000 	   47.0204 
    0.3891 	   21.9885 	    7.0000 	   57.0000 	   47.0554 
    0.6638 	   22.0075 	    7.0000 	   57.0000 	   47.0934 
    0.6943 	   22.0245 	    7.0000 	   57.0000 	   47.1274 
    0.8011 	   22.0440 	    7.0000 	   57.0000 	   47.1664 
    0.8316 	   22.0615 	    7.0000 	   57.0000 	   47.2004 
    0.6638 	   22.0780 	    7.0000 	   57.0000 	   47.2344 
    0.6790 	   22.0945 	    7.0000 	   57.0000 	   47.2674 
    0.8011 	   22.1125 	    7.0000 	   57.0000 	   47.3034 
    0.6638 	   22.1300 	    7.0000 	   57.0000 	   47.3384 
    0.6638 	   22.1485 	    7.0000 	   57.0000 	   47.3754 
    0.9079 	   22.1675 	    7.0000 	   57.0000 	   47.4134 
    0.7706 	   22.1855 	    7.0000 	   57.0000 	   47.4494 
    0.7553 	   22.2050 	    7.0000 	   57.0000 	   47.4884 
    0.7706 	   22.2235 	    7.0000 	   57.0000 	   47.5254 
    0.6943 	   22.2420 	    7.0000 	   57.0000 	   47.5624 
    0.8316 	   22.2605 	    7.0000 	   57.0000 	   47.5994 
    0.7858 	   22.2800 	    7.0000 	   57.0000 	   47.6384 
    0.7858 	   22.2985 	    7.0000 	   57.0000 	   47.6754 
    0.9079 	   22.3165 	    7.0000 	   57.0000 	   47.7114 
    0.7248 	   22.3370 	    7.0000 	   57.0000 	   47.7524 
    0.6790 	   22.3555 	    7.0000 	   57.0000 	   47.7894 
    0.7858 	   22.3745 	    7.0000 	   57.0000 	   47.8274 
    0.8011 	   22.3925 	    7.0000 	   57.0000 	   47.8634 
    0.6943 	   22.4095 	    7.0000 	   57.0000 	   47.8974 
    0.6485 	   22.4270 	    7.0000 	   57.0000 	   47.9324 
    0.7095 	   22.4445 	    7.0000 	   57.0000 	   47.9674 
    0.8164 	   22.4625 	    7.0000 	   57.0000 	   48.0034 
    0.7095 	   22.4805 	    7.0000 	   57.0000 	   48.0394 
    0.6943 	   22.4985 	    7.0000 	   57.0000 	   48.0754 
    0.7858 	   22.5165 	    7.0000 	   57.0000 	   48.1114 
    0.6790 	   22.5350 	    7.0000 	   57.0000 	   48.1484 
    0.8621 	   22.5545 	    7.0000 	   57.0000 	   48.1874 
    0.6943 	   22.5725 	    7.0000 	   57.0000 	   48.2234 
    0.7095 	   22.5895 	    7.0000 	   57.0000 	   48.2574 
    0.6943 	   22.6060 	    7.0000 	   57.0000 	   48.2904 
    0.7248 	   22.6240 	    7.0000 	   57.0000 	   48.3264 
    0.6638 	   22.6420 	    7.0000 	   57.0000 	   48.3624 
    0.7248 	   22.6605 	    7.0000 	   57.0000 	   48.3994 
    0.6943 	   22.6795 	    7.0000 	   57.0000 	   48.4374 
    0.7401 	   22.6970 	    7.0000 	   57.0000 	   48.4724 
    0.7248 	   22.7140 	    7.0000 	   57.0000 	   48.5064 
    0.8011 	   22.7325 	    7.0000 	   57.0000 	   48.5434 
    0.8011 	   22.7515 	    7.0000 	   57.0000 	   48.5815 
    0.8621 	   22.7700 	    7.0000 	   57.0000 	   48.6185 
    0.5722 	   22.7895 	    7.0000 	   57.0000 	   48.6575 
    0.5875 	   22.8095 	    7.0000 	   57.0000 	   48.6975 
    0.8011 	   22.8280 	    7.0000 	   57.0000 	   48.7345 
    0.8011 	   22.8490 	    7.0000 	   57.0000 	   48.7765 
    0.8927 	   22.8680 	    7.0000 	   57.0000 	   48.8145 
    0.6332 	   22.8865 	    7.0000 	   57.0000 	   48.8515 
    0.7858 	   22.9070 	    7.0000 	   57.0000 	   48.8925 
    0.7858 	   22.9260 	    7.0000 	   57.0000 	   48.9305 
    0.7858 	   22.9445 	    7.0000 	   57.0000 	   48.9675 
    0.8927 	   22.9650 	    7.0000 	   57.0000 	   49.0085 
    0.7401 	   22.9830 	    7.0000 	   57.0000 	   49.0445 
    0.6485 	   23.0015 	    7.0000 	   57.0000 	   49.0815 
    0.4044 	   23.0190 	    7.0000 	   57.0000 	   49.1165 
    0.7553 	   23.0390 	    7.0000 	   57.0000 	   49.1565 
    0.9079 	   23.0570 	    7.0000 	   57.0000 	   49.1925 
    0.9079 	   23.0750 	    7.0000 	   57.0000 	   49.2285 
    0.8164 	   23.0915 	    7.0000 	   57.0000 	   49.2615 
    0.7095 	   23.1080 	    7.0000 	   57.0000 	   49.2945 
    0.8927 	   23.1260 	    7.0000 	   57.0000 	   49.3305 
    0.7401 	   23.1450 	    7.0000 	   57.0000 	   49.3685 
    0.8927 	   23.1645 	    7.0000 	   57.0000 	   49.4075 
    0.7248 	   23.1840 	    7.0000 	   57.0000 	   49.4465 
    0.7858 	   23.2030 	    7.0000 	   57.0000 	   49.4845 
    0.7858 	   23.2230 	    7.0000 	   57.0000 	   49.5245 
    0.9079 	   23.2425 	    7.0000 	   57.0000 	   49.5635 
    0.7095 	   23.2615 	    7.0000 	   57.0000 	   49.6015 
    0.7401 	   23.2805 	    7.0000 	   57.0000 	   49.6395 
    0.7858 	   23.3010 	    7.0000 	   57.0000 	   49.6805 
    0.7706 	   23.3220 	    7.0000 	   57.0000 	   49.7225 
    0.8621 	   23.3410 	    7.0000 	   57.0000 	   49.7605 
    0.8774 	   23.3605 	    7.0000 	   57.0000 	   49.7995 
    0.6485 	   23.3795 	    7.0000 	   57.0000 	   49.8375 
    0.8469 	   23.3970 	    7.0000 	   57.0000 	   49.8725 
    0.6332 	   23.4165 	    7.0000 	   57.0000 	   49.9115 
    0.6790 	   23.4345 	    7.0000 	   57.0000 	   49.9475 
    0.6943 	   23.4520 	    7.0000 	   57.0000 	   49.9825 
    0.6332 	   23.4695 	    7.0000 	   57.0000 	   50.0175 
    0.3891 	   23.4875 	    7.0000 	   57.0000 	   50.0535 
    0.4044 	   23.5055 	    7.0000 	   57.0000 	   50.0895 
    0.8164 	   23.5235 	    7.0000 	   57.0000 	   50.1255 
    0.7401 	   23.5440 	    7.0000 	   57.0000 	   50.1665 
    0.9079 	   23.5620 	    7.0000 	   57.0000 	   50.2025 
    0.7858 	   23.5800 	    7.0000 	   57.0000 	   50.2385 
    0.7706 	   23.5970 	    7.0000 	   57.0000 	   50.2725 
    0.7858 	   23.6160 	    7.0000 	   57.0000 	   50.3105 
    0.9079 	   23.6360 	    7.0000 	   57.0000 	   50.3506 
    0.8621 	   23.6555 	    7.0000 	   57.0000 	   50.3896 
    0.7553 	   23.6750 	    7.0000 	   57.0000 	   50.4286 
    0.6943 	   23.6940 	    7.0000 	   57.0000 	   50.4666 
    0.7858 	   23.7135 	    7.0000 	   57.0000 	   50.5056 
    0.6943 	   23.7315 	    7.0000 	   57.0000 	   50.5416 
    0.4654 	   23.7490 	    7.0000 	   57.0000 	   50.5766 
    0.5722 	   23.7690 	    7.0000 	   57.0000 	   50.6166 
    0.7401 	   23.7880 	    7.0000 	   57.0000 	   50.6546 
    0.8164 	   23.8075 	    7.0000 	   57.0000 	   50.6936 
    0.8621 	   23.8270 	    7.0000 	   57.0000 	   50.7326 
    0.8316 	   23.8475 	    7.0000 	   57.0000 	   50.7736 
    0.6638 	   23.8675 	    7.0000 	   57.0000 	   50.8136 
    0.7706 	   23.8865 	    7.0000 	   57.0000 	   50.8516 
    0.7858 	   23.9065 	    7.0000 	   57.0000 	   50.8916 
    0.8011 	   23.9255 	    7.0000 	   57.0000 	   50.9296 
    0.7553 	   23.9445 	    7.0000 	   57.0000 	   50.9676 
    0.7858 	   23.9645 	    7.0000 	   57.0000 	   51.0076 
    0.8774 	   23.9835 	    7.0000 	   57.0000 	   51.0456 
    0.7401 	   24.0015 	    7.0000 	   57.0000 	   51.0816 
    0.8774 	   24.0200 	    7.0000 	   57.0000 	   51.1186 
    0.6790 	   24.0405 	    7.0000 	   57.0000 	   51.1596 
    0.7401 	   24.0580 	    7.0000 	   57.0000 	   51.1946 
    0.9232 	   24.0765 	    7.0000 	   57.0000 	   51.2316 
    0.9079 	   24.0935 	    7.0000 	   57.0000 	   51.2656 
    0.9232 	   24.1105 	    7.0000 	   57.0000 	   51.2996 
    0.6485 	   24.1285 	    7.0000 	   57.0000 	   51.3356 
    0.8164 	   24.1480 	    7.0000 	   57.0000 	   51.3746 
    0.7858 	   24.1690 	    7.0000 	   57.0000 	   51.4166 
    0.8164 	   24.1890 	    7.0000 	   57.0000 	   51.4566 
    0.7095 	   24.2080 	    7.0000 	   57.0000 	   51.4946 
    0.7553 	   24.2270 	    7.0000 	   57.0000 	   51.5326 
    0.8316 	   24.2465 	    7.0000 	   57.0000 	   51.5716 
    0.8774 	   24.2670 	    7.0000 	   57.0000 	   51.6126 
    0.8316 	   24.2865 	    7.0000 	   57.0000 	   51.6516 
    0.7553 	   24.3055 	    7.0000 	   57.0000 	   51.6896 
    0.7401 	   24.3230 	    7.0000 	   57.0000 	   51.7246 
    0.6638 	   24.3430 	    7.0000 	   57.0000 	   51.7646 
    0.8469 	   24.3615 	    7.0000 	   57.0000 	   51.8016 
    0.8621 	   24.3795 	    7.0000 	   57.0000 	   51.8376 
    0.7858 	   24.3970 	    7.0000 	   57.0000 	   51.8726 
    0.7248 	   24.4155 	    7.0000 	   57.0000 	   51.9096 
    0.6943 	   24.4355 	    7.0000 	   57.0000 	   51.9496 
    0.8774 	   24.4555 	    7.0000 	   57.0000 	   51.9896 
    0.8469 	   24.4755 	    7.0000 	   57.0000 	   52.0296 
    0.7095 	   24.4935 	    7.0000 	   57.0000 	   52.0657 
    0.7553 	   24.5115 	    7.0000 	   57.0000 	   52.1017 
    0.6790 	   24.5305 	    7.0000 	   57.0000 	   52.1397 
    0.8316 	   24.5500 	    7.0000 	   57.0000 	   52.1787 
    0.8316 	   24.5685 	    7.0000 	   57.0000 	   52.2157 
    0.6180 	   24.5870 	    7.0000 	   57.0000 	   52.2527 
    0.8927 	   24.6045 	    7.0000 	   57.0000 	   52.2877 
    0.8774 	   24.6235 	    7.0000 	   57.0000 	   52.3257 
    0.8469 	   24.6440 	    7.0000 	   57.0000 	   52.3667 
    0.8011 	   24.6635 	    7.0000 	   57.0000 	   52.4057 
    0.8011 	   24.6835 	    7.0000 	   57.0000 	   52.4457 
    0.7248 	   24.7040 	    7.0000 	   57.0000 	   52.4867 
    0.8316 	   24.7245 	    7.0000 	   57.0000 	   52.5277 
    0.7248 	   24.7445 	    7.0000 	   57.0000 	   52.5677 
    0.8164 	   24.7645 	    7.0000 	   57.0000 	   52.6077 
    0.8469 	   24.7840 	    7.0000 	   57.0000 	   52.6467 
    0.8621 	   24.8035 	    7.0000 	   57.0000 	   52.6857 
    0.7248 	   24.8240 	    7.0000 	   57.0000 	   52.7267 
    1.0147 	   24.8430 	    7.0000 	   57.0000 	   52.7647 
    0.6790 	   24.8615 	    7.0000 	   57.0000 	   52.8017 
    0.7553 	   24.8825 	    7.0000 	   57.0000 	   52.8437 
    0.7706 	   24.9025 	    7.0000 	   57.0000 	   52.8837 
    0.7401 	   24.9225 	    7.0000 	   57.0000 	   52.9237 
    0.7553 	   24.9415 	    7.0000 	   57.0000 	   52.9617 
    0.9232 	   24.9610 	    7.0000 	   57.0000 	   53.0007 
    0.8316 	   24.9805 	    7.0000 	   57.0000 	   53.0397 
    0.7706 	   24.9985 	    7.0000 	   57.0000 	   53.0757 
    0.8469 	   25.0175 	    7.0000 	   57.0000 	   53.1137 
    0.9689 	   25.0350 	    7.0000 	   57.0000 	   53.1487 
    0.6332 	   25.0565 	    7.0000 	   57.0000 	   53.1917 
    0.6790 	   25.0735 	    7.0000 	   57.0000 	   53.2257 
    0.9079 	   25.0910 	    7.0000 	   57.0000 	   53.2607 
    0.9232 	   25.1080 	    7.0000 	   57.0000 	   53.2947 
    0.7401 	   25.1255 	    7.0000 	   57.0000 	   53.3297 
    0.7706 	   25.1430 	    7.0000 	   57.0000 	   53.3647 
    0.8316 	   25.1605 	    7.0000 	   57.0000 	   53.3997 
    0.8927 	   25.1795 	    7.0000 	   57.0000 	   53.4377 
    0.7401 	   25.1980 	    7.0000 	   57.0000 	   53.4747 
    0.8164 	   25.2150 	    7.0000 	   57.0000 	   53.5087 
    0.8774 	   25.2345 	    7.0000 	   57.0000 	   53.5477 
    0.8164 	   25.2525 	    7.0000 	   57.0000 	   53.5837 
    0.9079 	   25.2700 	    7.0000 	   57.0000 	   53.6187 
    0.8316 	   25.2890 	    7.0000 	   57.0000 	   53.6567 
    0.9384 	   25.3085 	    7.0000 	   57.0000 	   53.6957 
    0.7706 	   25.3275 	    7.0000 	   57.0000 	   53.7337 
    0.8011 	   25.3445 	    7.0000 	   57.0000 	   53.7677 
    0.8011 	   25.3635 	    7.0000 	   57.0000 	   53.8057 
    0.6943 	   25.3815 	    7.0000 	   57.0000 	   53.8418 
    0.7553 	   25.3990 	    7.0000 	   57.0000 	   53.8768 
    0.8011 	   25.4180 	    7.0000 	   57.0000 	   53.9148 
    0.9384 	   25.4365 	    7.0000 	   57.0000 	   53.9518 
    0.8621 	   25.4550 	    7.0000 	   57.0000 	   53.9888 
    0.7401 	   25.4730 	    7.0000 	   57.0000 	   54.0248 
    0.8469 	   25.4905 	    7.0000 	   57.0000 	   54.0598 
    0.8774 	   25.5085 	    7.0000 	   57.0000 	   54.0958 
    0.8621 	   25.5270 	    7.0000 	   57.0000 	   54.1328 
    0.4959 	   25.5475 	    7.0000 	   57.0000 	   54.1738 
    0.6943 	   25.5655 	    7.0000 	   57.0000 	   54.2098 
    0.8621 	   25.5835 	    7.0000 	   57.0000 	   54.2458 
    0.9232 	   25.6010 	    7.0000 	   57.0000 	   54.2808 
    0.8469 	   25.6180 	    7.0000 	   57.0000 	   54.3148 
    0.7706 	   25.6360 	    7.0000 	   57.0000 	   54.3508 
    0.9384 	   25.6550 	    7.0000 	   57.0000 	   54.3888 
    0.7401 	   25.6745 	    7.0000 	   57.0000 	   54.4278 
    0.7858 	   25.6940 	    7.0000 	   57.0000 	   54.4668 
    0.7706 	   25.7135 	    7.0000 	   57.0000 	   54.5058 
    0.7706 	   25.7315 	    7.0000 	   57.0000 	   54.5418 
    0.9079 	   25.7530 	    7.0000 	   57.0000 	   54.5848 
    0.6027 	   25.7730 	    7.0000 	   57.0000 	   54.6248 
    0.8469 	   25.7930 	    7.0000 	   57.0000 	   54.6648 
    0.6027 	   25.8115 	    7.0000 	   57.0000 	   54.7018 
    0.7706 	   25.8315 	    7.0000 	   57.0000 	   54.7418 
    0.9384 	   25.8525 	    7.0000 	   57.0000 	   54.7838 
    0.9232 	   25.8735 	    7.0000 	   57.0000 	   54.8258 
    0.8164 	   25.8930 	    7.0000 	   57.0000 	   54.8648 
    0.7401 	   25.9125 	    7.0000 	   57.0000 	   54.9038 
    0.8621 	   25.9320 	    7.0000 	   57.0000 	   54.9428 
    0.8316 	   25.9530 	    7.0000 	   57.0000 	   54.9848 
    0.6943 	   25.9735 	    7.0000 	   57.0000 	   55.0258 
    0.7553 	   25.9920 	    7.0000 	   57.0000 	   55.0628 
    0.8469 	   26.0100 	    7.0000 	   57.0000 	   55.0988 
    0.8469 	   26.0285 	    7.0000 	   57.0000 	   55.1358 
    0.7401 	   26.0485 	    7.0000 	   57.0000 	   55.1758 
    0.8774 	   26.0670 	    7.0000 	   57.0000 	   55.2128 
    1.1368 	   26.0850 	    7.0000 	   57.0000 	   55.2488 
    0.9232 	   26.1025 	    7.0000 	   57.0000 	   55.2838 
    0.8774 	   26.1205 	    7.0000 	   57.0000 	   55.3198 
    0.8621 	   26.1380 	    7.0000 	   57.0000 	   55.3548 
    0.8621 	   26.1570 	    7.0000 	   57.0000 	   55.3928 
    0.6943 	   26.1760 	    7.0000 	   57.0000 	   55.4308 
    0.6332 	   26.1945 	    7.0000 	   57.0000 	   55.4678 
    0.8774 	   26.2160 	    7.0000 	   57.0000 	   55.5108 
    0.7553 	   26.2355 	    7.0000 	   57.0000 	   55.5499 
    0.8927 	   26.2565 	    7.0000 	   57.0000 	   55.5919 
    0.9079 	   26.2765 	    7.0000 	   57.0000 	   55.6319 
    0.8927 	   26.2950 	    7.0000 	   57.0000 	   55.6689 
    0.8316 	   26.3130 	    7.0000 	   57.0000 	   55.7049 
    0.8011 	   26.3310 	    7.0000 	   57.0000 	   55.7409 
    0.8927 	   26.3490 	    7.0000 	   57.0000 	   55.7769 
    0.8011 	   26.3675 	    7.0000 	   57.0000 	   55.8139 
    0.6790 	   26.3850 	    7.0000 	   57.0000 	   55.8489 
    0.9384 	   26.4030 	    7.0000 	   57.0000 	   55.8849 
    0.8469 	   26.4205 	    7.0000 	   57.0000 	   55.9199 
    1.0147 	   26.4380 	    7.0000 	   57.0000 	   55.9549 
    0.8011 	   26.4585 	    7.0000 	   57.0000 	   55.9959 
    0.8011 	   26.4780 	    7.0000 	   57.0000 	   56.0349 
    0.8011 	   26.4975 	    7.0000 	   57.0000 	   56.0739 
    0.7095 	   26.5150 	    7.0000 	   57.0000 	   56.1089 
    0.8011 	   26.5330 	    7.0000 	   57.0000 	   56.1449 
    0.9232 	   26.5545 	    7.0000 	   57.0000 	   56.1879 
    0.8011 	   26.5720 	    7.0000 	   57.0000 	   56.2229 
    0.7401 	   26.5900 	    7.0000 	   57.0000 	   56.2589 
    0.8927 	   26.6065 	    7.0000 	   57.0000 	   56.2919 
    0.7858 	   26.6240 	    7.0000 	   57.0000 	   56.3269 
    1.0758 	   26.6415 	    7.0000 	   57.0000 	   56.3619 
    0.7553 	   26.6610 	    7.0000 	   57.0000 	   56.4009 
    0.8164 	   26.6795 	    7.0000 	   57.0000 	   56.4379 
    0.7706 	   26.6990 	    7.0000 	   57.0000 	   56.4769 
    0.8621 	   26.7185 	    7.0000 	   57.0000 	   56.5159 
    0.8774 	   26.7380 	    7.0000 	   57.0000 	   56.5549 
    0.8621 	   26.7560 	    7.0000 	   57.0000 	   56.5909 
    0.8469 	   26.7755 	    7.0000 	   57.0000 	   56.6299 
    0.8164 	   26.7950 	    7.0000 	   57.0000 	   56.6689 
    0.7553 	   26.8160 	    7.0000 	   57.0000 	   56.7109 
    0.8469 	   26.8355 	    7.0000 	   57.0000 	   56.7499 
    0.7401 	   26.8545 	    7.0000 	   57.0000 	   56.7879 
    0.8774 	   26.8745 	    7.0000 	   57.0000 	   56.8279 
    0.8621 	   26.8945 	    7.0000 	   57.0000 	   56.8679 
    0.8164 	   26.9140 	    7.0000 	   57.0000 	   56.9069 
    0.8316 	   26.9330 	    7.0000 	   57.0000 	   56.9449 
    0.7553 	   26.9525 	    7.0000 	   57.0000 	   56.9839 
    0.8164 	   26.9725 	    7.0000 	   57.0000 	   57.0239 
    0.8774 	   26.9910 	    7.0000 	   57.0000 	   57.0609 
    0.8621 	   27.0095 	    7.0000 	   57.0000 	   57.0979 
    0.8927 	   27.0285 	    7.0000 	   57.0000 	   57.1359 
    0.9232 	   27.0480 	    7.0000 	   57.0000 	   57.1749 
    0.8316 	   27.0670 	    7.0000 	   57.0000 	   57.2129 
    0.8927 	   27.0850 	    7.0000 	   57.0000 	   57.2489 
    0.9079 	   27.1030 	    7.0000 	   57.0000 	   57.2849 
    0.8469 	   27.1205 	    7.0000 	   57.0000 	   57.3200 
    0.9537 	   27.1375 	    7.0000 	   57.0000 	   57.3540 
    0.9079 	   27.1555 	    7.0000 	   57.0000 	   57.3900 
    0.8164 	   27.1730 	    7.0000 	   57.0000 	   57.4250 
    0.9537 	   27.1905 	    7.0000 	   57.0000 	   57.4600 
    0.9079 	   27.2085 	    7.0000 	   57.0000 	   57.4960 
    0.9842 	   27.2265 	    7.0000 	   57.0000 	   57.5320 
    0.9689 	   27.2440 	    7.0000 	   57.0000 	   57.5670 
    0.8316 	   27.2620 	    7.0000 	   57.0000 	   57.6030 
    0.8164 	   27.2790 	    7.0000 	   57.0000 	   57.6370 
    0.7553 	   27.2965 	    7.0000 	   57.0000 	   57.6720 
    0.7553 	   27.3140 	    7.0000 	   57.0000 	   57.7070 
    0.8621 	   27.3315 	    7.0000 	   57.0000 	   57.7420 
    1.0605 	   27.3495 	    7.0000 	   57.0000 	   57.7780 
    0.8774 	   27.3670 	    7.0000 	   57.0000 	   57.8130 
    0.7248 	   27.3855 	    7.0000 	   57.0000 	   57.8500 
    0.8011 	   27.4030 	    7.0000 	   57.0000 	   57.8850 
    0.5570 	   27.4205 	    7.0000 	   57.0000 	   57.9200 
    0.8621 	   27.4385 	    7.0000 	   57.0000 	   57.9560 
    0.8011 	   27.4560 	    7.0000 	   57.0000 	   57.9910 
    0.8469 	   27.4730 	    7.0000 	   57.0000 	   58.0250 
    0.8164 	   27.4905 	    7.0000 	   57.0000 	   58.0600 
    0.8774 	   27.5080 	    7.0000 	   57.0000 	   58.0950 
    0.9232 	   27.5260 	    7.0000 	   57.0000 	   58.1310 
    0.7858 	   27.5470 	    7.0000 	   57.0000 	   58.1730 
    0.8011 	   27.5655 	    7.0000 	   57.0000 	   58.2100 
    1.0300 	   27.5830 	    7.0000 	   57.0000 	   58.2450 
    0.9384 	   27.6010 	    7.0000 	   57.0000 	   58.2810 
    0.8469 	   27.6185 	    7.0000 	   57.0000 	   58.3160 
    1.0758 	   27.6370 	    7.0000 	   57.0000 	   58.3530 
    0.8469 	   27.6580 	    7.0000 	   57.0000 	   58.3950 
    0.7401 	   27.6775 	    7.0000 	   57.0000 	   58.4340 
    0.7095 	   27.6970 	    7.0000 	   57.0000 	   58.4730 
    0.9537 	   27.7175 	    7.0000 	   57.0000 	   58.5140 
    0.8316 	   27.7365 	    7.0000 	   57.0000 	   58.5520 
    1.0452 	   27.7560 	    7.0000 	   57.0000 	   58.5910 
    0.8469 	   27.7760 	    7.0000 	   57.0000 	   58.6310 
    0.8164 	   27.7955 	    7.0000 	   57.0000 	   58.6700 
    0.8469 	   27.8145 	    7.0000 	   57.0000 	   58.7080 
    1.0300 	   27.8340 	    7.0000 	   57.0000 	   58.7470 
    0.9995 	   27.8535 	    7.0000 	   57.0000 	   58.7860 
    0.8774 	   27.8730 	    7.0000 	   57.0000 	   58.8250 
    0.8621 	   27.8935 	    7.0000 	   57.0000 	   58.8660 
    0.8621 	   27.9130 	    7.0000 	   57.0000 	   58.9050 
    0.9689 	   27.9330 	    7.0000 	   57.0000 	   58.9450 
    0.8774 	   27.9525 	    7.0000 	   57.0000 	   58.9840 
    0.8011 	   27.9730 	    7.0000 	   57.0000 	   59.0250 
    0.8164 	   27.9930 	    7.0000 	   57.0000 	   59.0650 
    0.8774 	   28.0125 	    7.0000 	   57.0000 	   59.1041 
    0.9079 	   28.0310 	    7.0000 	   57.0000 	   59.1411 
    0.6332 	   28.0520 	    7.0000 	   57.0000 	   59.1831 
    1.0452 	   28.0700 	    7.0000 	   57.0000 	   59.2191 
    0.8621 	   28.0875 	    7.0000 	   57.0000 	   59.2541 
    0.6332 	   28.1045 	    7.0000 	   57.0000 	   59.2881 
    0.8927 	   28.1220 	    7.0000 	   57.0000 	   59.3231 
    0.8469 	   28.1400 	    7.0000 	   57.0000 	   59.3591 
    0.8621 	   28.1600 	    7.0000 	   57.0000 	   59.3991 
    0.8316 	   28.1805 	    7.0000 	   57.0000 	   59.4401 
    0.8621 	   28.2000 	    7.0000 	   57.0000 	   59.4791 
    0.8316 	   28.2200 	    7.0000 	   57.0000 	   59.5191 
    0.9689 	   28.2400 	    7.0000 	   57.0000 	   59.5591 
    0.8621 	   28.2590 	    7.0000 	   57.0000 	   59.5971 
    0.9079 	   28.2815 	    7.0000 	   57.0000 	   59.6421 
    0.7706 	   28.3015 	    7.0000 	   57.0000 	   59.6821 
    0.8316 	   28.3210 	    7.0000 	   57.0000 	   59.7211 
    1.0758 	   28.3410 	    7.0000 	   57.0000 	   59.7611 
    0.7553 	   28.3610 	    7.0000 	   57.0000 	   59.8011 
    0.9537 	   28.3805 	    7.0000 	   57.0000 	   59.8401 
    0.7706 	   28.3995 	    7.0000 	   57.0000 	   59.8781 
    0.9232 	   28.4190 	    7.0000 	   57.0000 	   59.9171 
    0.8011 	   28.4380 	    7.0000 	   57.0000 	   59.9551 
    0.9384 	   28.4555 	    7.0000 	   57.0000 	   59.9901 
    0.8621 	   28.4730 	    7.0000 	   58.0000 	    0.0251 
    0.9079 	   28.4910 	    7.0000 	   58.0000 	    0.0611 
    0.9537 	   28.5090 	    7.0000 	   58.0000 	    0.0971 
    0.9689 	   28.5285 	    7.0000 	   58.0000 	    0.1361 
    0.8774 	   28.5480 	    7.0000 	   58.0000 	    0.1751 
    0.9384 	   28.5665 	    7.0000 	   58.0000 	    0.2121 
    0.7858 	   28.5840 	    7.0000 	   58.0000 	    0.2471 
    0.8621 	   28.6025 	    7.0000 	   58.0000 	    0.2841 
    0.9842 	   28.6200 	    7.0000 	   58.0000 	    0.3191 
    0.7706 	   28.6380 	    7.0000 	   58.0000 	    0.3551 
    0.8011 	   28.6570 	    7.0000 	   58.0000 	    0.3931 
    0.8621 	   28.6775 	    7.0000 	   58.0000 	    0.4341 
    1.0605 	   28.6985 	    7.0000 	   58.0000 	    0.4761 
    0.9689 	   28.7185 	    7.0000 	   58.0000 	    0.5161 
    0.9384 	   28.7385 	    7.0000 	   58.0000 	    0.5561 
    0.8927 	   28.7585 	    7.0000 	   58.0000 	    0.5961 
    0.9384 	   28.7785 	    7.0000 	   58.0000 	    0.6361 
    0.9995 	   28.7970 	    7.0000 	   58.0000 	    0.6731 
    1.0758 	   28.8165 	    7.0000 	   58.0000 	    0.7121 
    0.7553 	   28.8360 	    7.0000 	   58.0000 	    0.7511 
    0.9537 	   28.8545 	    7.0000 	   58.0000 	    0.7881 
    0.9384 	   28.8735 	    7.0000 	   58.0000 	    0.8262 
    0.9995 	   28.8925 	    7.0000 	   58.0000 	    0.8642 
    0.8621 	   28.9115 	    7.0000 	   58.0000 	    0.9022 
    0.8011 	   28.9320 	    7.0000 	   58.0000 	    0.9432 
    1.0758 	   28.9515 	    7.0000 	   58.0000 	    0.9822 
    0.9232 	   28.9720 	    7.0000 	   58.0000 	    1.0232 
    0.6790 	   28.9930 	    7.0000 	   58.0000 	    1.0652 
    0.8011 	   29.0120 	    7.0000 	   58.0000 	    1.1032 
    0.9384 	   29.0305 	    7.0000 	   58.0000 	    1.1402 
    0.8164 	   29.0505 	    7.0000 	   58.0000 	    1.1802 
    1.0147 	   29.0695 	    7.0000 	   58.0000 	    1.2182 
    0.8774 	   29.0875 	    7.0000 	   58.0000 	    1.2542 
    0.8164 	   29.1050 	    7.0000 	   58.0000 	    1.2892 
    0.9232 	   29.1225 	    7.0000 	   58.0000 	    1.3242 
    0.9384 	   29.1405 	    7.0000 	   58.0000 	    1.3602 
    0.8621 	   29.1605 	    7.0000 	   58.0000 	    1.4002 
    0.8621 	   29.1805 	    7.0000 	   58.0000 	    1.4402 
    1.1215 	   29.2015 	    7.0000 	   58.0000 	    1.4822 
    0.8774 	   29.2210 	    7.0000 	   58.0000 	    1.5212 
    0.9995 	   29.2410 	    7.0000 	   58.0000 	    1.5612 
    0.9537 	   29.2600 	    7.0000 	   58.0000 	    1.5992 
    0.7706 	   29.2795 	    7.0000 	   58.0000 	    1.6382 
    1.0147 	   29.2990 	    7.0000 	   58.0000 	    1.6772 
    0.9232 	   29.3165 	    7.0000 	   58.0000 	    1.7122 
    0.7706 	   29.3350 	    7.0000 	   58.0000 	    1.7492 
    0.9689 	   29.3530 	    7.0000 	   58.0000 	    1.7852 
    0.8621 	   29.3710 	    7.0000 	   58.0000 	    1.8212 
    0.7095 	   29.3885 	    7.0000 	   58.0000 	    1.8562 
    0.6027 	   29.4065 	    7.0000 	   58.0000 	    1.8922 
    0.9079 	   29.4240 	    7.0000 	   58.0000 	    1.9272 
    0.9842 	   29.4430 	    7.0000 	   58.0000 	    1.9652 
    0.9537 	   29.4610 	    7.0000 	   58.0000 	    2.0012 
    0.7858 	   29.4795 	    7.0000 	   58.0000 	    2.0382 
    0.9232 	   29.4970 	    7.0000 	   58.0000 	    2.0732 
    0.9232 	   29.5155 	    7.0000 	   58.0000 	    2.1102 
    0.9384 	   29.5340 	    7.0000 	   58.0000 	    2.1472 
    0.9232 	   29.5535 	    7.0000 	   58.0000 	    2.1862 
    1.0147 	   29.5715 	    7.0000 	   58.0000 	    2.2222 
    0.9079 	   29.5910 	    7.0000 	   58.0000 	    2.2612 
    0.8011 	   29.6090 	    7.0000 	   58.0000 	    2.2972 
    0.9995 	   29.6260 	    7.0000 	   58.0000 	    2.3312 
    1.0605 	   29.6435 	    7.0000 	   58.0000 	    2.3662 
    0.9384 	   29.6630 	    7.0000 	   58.0000 	    2.4052 
    0.7553 	   29.6825 	    7.0000 	   58.0000 	    2.4442 
    0.9842 	   29.7020 	    7.0000 	   58.0000 	    2.4822 
    0.8469 	   29.7225 	    7.0000 	   58.0000 	    2.5232 
    0.8774 	   29.7420 	    7.0000 	   58.0000 	    2.5622 
    0.9842 	   29.7630 	    7.0000 	   58.0000 	    2.6043 
    1.0910 	   29.7815 	    7.0000 	   58.0000 	    2.6413 
    0.8316 	   29.8040 	    7.0000 	   58.0000 	    2.6863 
    1.0605 	   29.8235 	    7.0000 	   58.0000 	    2.7253 
    0.8621 	   29.8440 	    7.0000 	   58.0000 	    2.7663 
    0.8316 	   29.8650 	    7.0000 	   58.0000 	    2.8083 
    0.8316 	   29.8855 	    7.0000 	   58.0000 	    2.8493 
    0.8927 	   29.9070 	    7.0000 	   58.0000 	    2.8923 
    0.8469 	   29.9280 	    7.0000 	   58.0000 	    2.9343 
    0.8927 	   29.9480 	    7.0000 	   58.0000 	    2.9743 
    0.9384 	   29.9685 	    7.0000 	   58.0000 	    3.0153 
    0.8927 	   29.9885 	    7.0000 	   58.0000 	    3.0553 
    0.9995 	   30.0080 	    7.0000 	   58.0000 	    3.0943 
    1.0605 	   30.0270 	    7.0000 	   58.0000 	    3.1323 
    1.1673 	   30.0475 	    7.0000 	   58.0000 	    3.1733 
    0.8774 	   30.0655 	    7.0000 	   58.0000 	    3.2093 
    0.9079 	   30.0835 	    7.0000 	   58.0000 	    3.2453 
    0.9079 	   30.1010 	    7.0000 	   58.0000 	    3.2803 
    0.8621 	   30.1185 	    7.0000 	   58.0000 	    3.3153 
    0.9384 	   30.1370 	    7.0000 	   58.0000 	    3.3523 
    0.7858 	   30.1555 	    7.0000 	   58.0000 	    3.3893 
    0.9384 	   30.1750 	    7.0000 	   58.0000 	    3.4283 
    0.9537 	   30.1945 	    7.0000 	   58.0000 	    3.4673 
    0.8316 	   30.2155 	    7.0000 	   58.0000 	    3.5093 
    1.0300 	   30.2360 	    7.0000 	   58.0000 	    3.5503 
    1.1215 	   30.2560 	    7.0000 	   58.0000 	    3.5903 
    0.9384 	   30.2760 	    7.0000 	   58.0000 	    3.6303 
    0.8164 	   30.2960 	    7.0000 	   58.0000 	    3.6703 
    0.8621 	   30.3165 	    7.0000 	   58.0000 	    3.7113 
    0.9384 	   30.3365 	    7.0000 	   58.0000 	    3.7513 
    0.9537 	   30.3565 	    7.0000 	   58.0000 	    3.7913 
    1.0147 	   30.3760 	    7.0000 	   58.0000 	    3.8303 
    0.9232 	   30.3950 	    7.0000 	   58.0000 	    3.8683 
    0.8469 	   30.4130 	    7.0000 	   58.0000 	    3.9043 
    0.8621 	   30.4315 	    7.0000 	   58.0000 	    3.9413 
    1.1063 	   30.4490 	    7.0000 	   58.0000 	    3.9763 
    1.0300 	   30.4675 	    7.0000 	   58.0000 	    4.0133 
    1.0147 	   30.4855 	    7.0000 	   58.0000 	    4.0493 
    0.9842 	   30.5045 	    7.0000 	   58.0000 	    4.0873 
    1.0147 	   30.5250 	    7.0000 	   58.0000 	    4.1283 
    0.9995 	   30.5435 	    7.0000 	   58.0000 	    4.1653 
    0.8927 	   30.5630 	    7.0000 	   58.0000 	    4.2043 
    0.6485 	   30.5810 	    7.0000 	   58.0000 	    4.2403 
    0.8927 	   30.5995 	    7.0000 	   58.0000 	    4.2773 
    0.6332 	   30.6170 	    7.0000 	   58.0000 	    4.3123 
    0.9079 	   30.6350 	    7.0000 	   58.0000 	    4.3484 
    0.8774 	   30.6535 	    7.0000 	   58.0000 	    4.3854 
    0.9995 	   30.6735 	    7.0000 	   58.0000 	    4.4254 
    1.0300 	   30.6930 	    7.0000 	   58.0000 	    4.4644 
    1.0147 	   30.7120 	    7.0000 	   58.0000 	    4.5024 
    1.0147 	   30.7325 	    7.0000 	   58.0000 	    4.5434 
    0.9079 	   30.7525 	    7.0000 	   58.0000 	    4.5834 
    0.8927 	   30.7730 	    7.0000 	   58.0000 	    4.6244 
    0.8774 	   30.7935 	    7.0000 	   58.0000 	    4.6654 
    0.8774 	   30.8140 	    7.0000 	   58.0000 	    4.7064 
    0.6790 	   30.8345 	    7.0000 	   58.0000 	    4.7474 
    0.9995 	   30.8550 	    7.0000 	   58.0000 	    4.7884 
    0.9232 	   30.8760 	    7.0000 	   58.0000 	    4.8304 
    1.0452 	   30.8950 	    7.0000 	   58.0000 	    4.8684 
    0.9995 	   30.9160 	    7.0000 	   58.0000 	    4.9104 
    1.0452 	   30.9365 	    7.0000 	   58.0000 	    4.9514 
    0.9537 	   30.9570 	    7.0000 	   58.0000 	    4.9924 
    0.9537 	   30.9775 	    7.0000 	   58.0000 	    5.0334 
    0.9842 	   30.9980 	    7.0000 	   58.0000 	    5.0744 
    0.9842 	   31.0170 	    7.0000 	   58.0000 	    5.1124 
    0.9689 	   31.0360 	    7.0000 	   58.0000 	    5.1504 
    1.1063 	   31.0570 	    7.0000 	   58.0000 	    5.1924 
    1.0758 	   31.0750 	    7.0000 	   58.0000 	    5.2284 
    0.9232 	   31.0930 	    7.0000 	   58.0000 	    5.2644 
    1.0452 	   31.1115 	    7.0000 	   58.0000 	    5.3014 
    1.0910 	   31.1285 	    7.0000 	   58.0000 	    5.3354 
    1.1063 	   31.1470 	    7.0000 	   58.0000 	    5.3724 
    1.1063 	   31.1655 	    7.0000 	   58.0000 	    5.4094 
    0.8927 	   31.1860 	    7.0000 	   58.0000 	    5.4504 
    1.0300 	   31.2065 	    7.0000 	   58.0000 	    5.4914 
    0.9384 	   31.2255 	    7.0000 	   58.0000 	    5.5294 
    0.9232 	   31.2440 	    7.0000 	   58.0000 	    5.5664 
    0.6485 	   31.2625 	    7.0000 	   58.0000 	    5.6034 
    1.0452 	   31.2810 	    7.0000 	   58.0000 	    5.6404 
    1.0452 	   31.2995 	    7.0000 	   58.0000 	    5.6774 
    1.0910 	   31.3180 	    7.0000 	   58.0000 	    5.7144 
    0.8469 	   31.3360 	    7.0000 	   58.0000 	    5.7504 
    1.0758 	   31.3555 	    7.0000 	   58.0000 	    5.7894 
    0.9232 	   31.3750 	    7.0000 	   58.0000 	    5.8284 
    1.0605 	   31.3950 	    7.0000 	   58.0000 	    5.8684 
    0.9232 	   31.4155 	    7.0000 	   58.0000 	    5.9094 
    0.7706 	   31.4350 	    7.0000 	   58.0000 	    5.9484 
    0.9079 	   31.4565 	    7.0000 	   58.0000 	    5.9914 
    0.9842 	   31.4770 	    7.0000 	   58.0000 	    6.0324 
    0.9537 	   31.4970 	    7.0000 	   58.0000 	    6.0725 
    1.0300 	   31.5165 	    7.0000 	   58.0000 	    6.1115 
    1.0758 	   31.5355 	    7.0000 	   58.0000 	    6.1495 
    0.6943 	   31.5545 	    7.0000 	   58.0000 	    6.1875 
    0.9232 	   31.5730 	    7.0000 	   58.0000 	    6.2245 
    1.1215 	   31.5915 	    7.0000 	   58.0000 	    6.2615 
    1.0758 	   31.6100 	    7.0000 	   58.0000 	    6.2985 
    0.6638 	   31.6280 	    7.0000 	   58.0000 	    6.3345 
    0.8927 	   31.6475 	    7.0000 	   58.0000 	    6.3735 
    1.2131 	   31.6670 	    7.0000 	   58.0000 	    6.4125 
    1.0147 	   31.6850 	    7.0000 	   58.0000 	    6.4485 
    1.0452 	   31.7045 	    7.0000 	   58.0000 	    6.4875 
    1.0452 	   31.7230 	    7.0000 	   58.0000 	    6.5245 
    1.0910 	   31.7415 	    7.0000 	   58.0000 	    6.5615 
    0.9384 	   31.7615 	    7.0000 	   58.0000 	    6.6015 
    1.0147 	   31.7820 	    7.0000 	   58.0000 	    6.6425 
    0.9232 	   31.8010 	    7.0000 	   58.0000 	    6.6805 
    0.9689 	   31.8195 	    7.0000 	   58.0000 	    6.7175 
    1.0147 	   31.8385 	    7.0000 	   58.0000 	    6.7555 
    0.8469 	   31.8570 	    7.0000 	   58.0000 	    6.7925 
    0.9384 	   31.8750 	    7.0000 	   58.0000 	    6.8285 
    1.0605 	   31.8945 	    7.0000 	   58.0000 	    6.8675 
    0.9995 	   31.9150 	    7.0000 	   58.0000 	    6.9085 
    0.9842 	   31.9350 	    7.0000 	   58.0000 	    6.9485 
    1.1368 	   31.9550 	    7.0000 	   58.0000 	    6.9885 
    1.0910 	   31.9750 	    7.0000 	   58.0000 	    7.0285 
    1.0605 	   31.9950 	    7.0000 	   58.0000 	    7.0685 
    0.6638 	   32.0140 	    7.0000 	   58.0000 	    7.1065 
    1.1215 	   32.0325 	    7.0000 	   58.0000 	    7.1435 
    0.8621 	   32.0525 	    7.0000 	   58.0000 	    7.1835 
    1.0300 	   32.0715 	    7.0000 	   58.0000 	    7.2215 
    1.1521 	   32.0900 	    7.0000 	   58.0000 	    7.2585 
    0.7095 	   32.1085 	    7.0000 	   58.0000 	    7.2955 
    0.9079 	   32.1265 	    7.0000 	   58.0000 	    7.3315 
    1.0147 	   32.1445 	    7.0000 	   58.0000 	    7.3675 
    0.9995 	   32.1635 	    7.0000 	   58.0000 	    7.4055 
    0.8774 	   32.1820 	    7.0000 	   58.0000 	    7.4425 
    0.9537 	   32.2015 	    7.0000 	   58.0000 	    7.4815 
    1.1215 	   32.2210 	    7.0000 	   58.0000 	    7.5205 
    0.8164 	   32.2390 	    7.0000 	   58.0000 	    7.5565 
    1.1215 	   32.2575 	    7.0000 	   58.0000 	    7.5935 
    1.0758 	   32.2760 	    7.0000 	   58.0000 	    7.6305 
    1.0300 	   32.2940 	    7.0000 	   58.0000 	    7.6665 
    0.9842 	   32.3125 	    7.0000 	   58.0000 	    7.7035 
    0.9842 	   32.3310 	    7.0000 	   58.0000 	    7.7405 
    0.6485 	   32.3500 	    7.0000 	   58.0000 	    7.7785 
    0.8927 	   32.3705 	    7.0000 	   58.0000 	    7.8196 
    1.0452 	   32.3905 	    7.0000 	   58.0000 	    7.8596 
    1.1673 	   32.4115 	    7.0000 	   58.0000 	    7.9016 
    1.0605 	   32.4320 	    7.0000 	   58.0000 	    7.9426 
    1.1063 	   32.4530 	    7.0000 	   58.0000 	    7.9846 
    1.1673 	   32.4740 	    7.0000 	   58.0000 	    8.0266 
    1.0452 	   32.4945 	    7.0000 	   58.0000 	    8.0676 
    0.9842 	   32.5160 	    7.0000 	   58.0000 	    8.1106 
    1.0910 	   32.5350 	    7.0000 	   58.0000 	    8.1486 
    1.0300 	   32.5545 	    7.0000 	   58.0000 	    8.1876 
    1.0758 	   32.5740 	    7.0000 	   58.0000 	    8.2266 
    1.0300 	   32.5940 	    7.0000 	   58.0000 	    8.2666 
    1.0758 	   32.6125 	    7.0000 	   58.0000 	    8.3036 
    1.0605 	   32.6300 	    7.0000 	   58.0000 	    8.3386 
    1.1673 	   32.6480 	    7.0000 	   58.0000 	    8.3746 
    1.0910 	   32.6670 	    7.0000 	   58.0000 	    8.4126 
    0.9384 	   32.6875 	    7.0000 	   58.0000 	    8.4536 
    1.0605 	   32.7060 	    7.0000 	   58.0000 	    8.4906 
    0.9537 	   32.7255 	    7.0000 	   58.0000 	    8.5296 
    1.0452 	   32.7445 	    7.0000 	   58.0000 	    8.5676 
    1.0758 	   32.7645 	    7.0000 	   58.0000 	    8.6076 
    0.9689 	   32.7830 	    7.0000 	   58.0000 	    8.6446 
    0.9232 	   32.8025 	    7.0000 	   58.0000 	    8.6836 
    1.1826 	   32.8225 	    7.0000 	   58.0000 	    8.7236 
    1.0452 	   32.8425 	    7.0000 	   58.0000 	    8.7636 
    1.0605 	   32.8615 	    7.0000 	   58.0000 	    8.8016 
    1.1368 	   32.8825 	    7.0000 	   58.0000 	    8.8436 
    1.1826 	   32.9025 	    7.0000 	   58.0000 	    8.8836 
    1.1063 	   32.9235 	    7.0000 	   58.0000 	    8.9256 
    1.0605 	   32.9440 	    7.0000 	   58.0000 	    8.9666 
    0.9384 	   32.9645 	    7.0000 	   58.0000 	    9.0076 
    0.8927 	   32.9845 	    7.0000 	   58.0000 	    9.0476 
    0.9995 	   33.0040 	    7.0000 	   58.0000 	    9.0866 
    1.0910 	   33.0240 	    7.0000 	   58.0000 	    9.1266 
    1.0300 	   33.0440 	    7.0000 	   58.0000 	    9.1666 
    0.9842 	   33.0635 	    7.0000 	   58.0000 	    9.2056 
    0.9537 	   33.0825 	    7.0000 	   58.0000 	    9.2436 
    1.0147 	   33.1010 	    7.0000 	   58.0000 	    9.2806 
    0.9842 	   33.1200 	    7.0000 	   58.0000 	    9.3186 
    1.0758 	   33.1380 	    7.0000 	   58.0000 	    9.3546 
    0.7095 	   33.1580 	    7.0000 	   58.0000 	    9.3946 
    1.1368 	   33.1780 	    7.0000 	   58.0000 	    9.4346 
    0.9842 	   33.1985 	    7.0000 	   58.0000 	    9.4756 
    0.9079 	   33.2190 	    7.0000 	   58.0000 	    9.5166 
    1.0758 	   33.2400 	    7.0000 	   58.0000 	    9.5587 
    1.0605 	   33.2600 	    7.0000 	   58.0000 	    9.5987 
    1.0147 	   33.2810 	    7.0000 	   58.0000 	    9.6407 
    1.0910 	   33.3015 	    7.0000 	   58.0000 	    9.6817 
    1.0452 	   33.3230 	    7.0000 	   58.0000 	    9.7247 
    0.9842 	   33.3430 	    7.0000 	   58.0000 	    9.7647 
    0.8927 	   33.3640 	    7.0000 	   58.0000 	    9.8067 
    1.0758 	   33.3855 	    7.0000 	   58.0000 	    9.8497 
    0.9232 	   33.4055 	    7.0000 	   58.0000 	    9.8897 
    0.9384 	   33.4260 	    7.0000 	   58.0000 	    9.9307 
    0.8621 	   33.4465 	    7.0000 	   58.0000 	    9.9717 
    1.1063 	   33.4680 	    7.0000 	   58.0000 	   10.0147 
    1.2131 	   33.4880 	    7.0000 	   58.0000 	   10.0547 
    1.1673 	   33.5090 	    7.0000 	   58.0000 	   10.0967 
    1.2131 	   33.5280 	    7.0000 	   58.0000 	   10.1347 
    1.1063 	   33.5470 	    7.0000 	   58.0000 	   10.1727 
    0.9537 	   33.5660 	    7.0000 	   58.0000 	   10.2107 
    0.9842 	   33.5850 	    7.0000 	   58.0000 	   10.2487 
    1.0758 	   33.6035 	    7.0000 	   58.0000 	   10.2857 
    0.9995 	   33.6220 	    7.0000 	   58.0000 	   10.3227 
    1.1368 	   33.6410 	    7.0000 	   58.0000 	   10.3607 
    1.0758 	   33.6595 	    7.0000 	   58.0000 	   10.3977 
    1.1826 	   33.6780 	    7.0000 	   58.0000 	   10.4347 
    1.0452 	   33.6970 	    7.0000 	   58.0000 	   10.4727 
    1.2131 	   33.7165 	    7.0000 	   58.0000 	   10.5117 
    1.1063 	   33.7365 	    7.0000 	   58.0000 	   10.5517 
    1.0605 	   33.7580 	    7.0000 	   58.0000 	   10.5947 
    1.0605 	   33.7785 	    7.0000 	   58.0000 	   10.6357 
    1.0758 	   33.7985 	    7.0000 	   58.0000 	   10.6757 
    1.0147 	   33.8190 	    7.0000 	   58.0000 	   10.7167 
    1.1673 	   33.8390 	    7.0000 	   58.0000 	   10.7567 
    0.9995 	   33.8590 	    7.0000 	   58.0000 	   10.7967 
    1.0147 	   33.8795 	    7.0000 	   58.0000 	   10.8377 
    1.1521 	   33.9000 	    7.0000 	   58.0000 	   10.8787 
    1.0605 	   33.9210 	    7.0000 	   58.0000 	   10.9207 
    1.2131 	   33.9415 	    7.0000 	   58.0000 	   10.9617 
    1.0605 	   33.9610 	    7.0000 	   58.0000 	   11.0007 
    1.1978 	   33.9810 	    7.0000 	   58.0000 	   11.0407 
    1.1215 	   34.0005 	    7.0000 	   58.0000 	   11.0797 
    1.1673 	   34.0190 	    7.0000 	   58.0000 	   11.1167 
    1.1368 	   34.0400 	    7.0000 	   58.0000 	   11.1587 
    1.0910 	   34.0590 	    7.0000 	   58.0000 	   11.1967 
    0.9842 	   34.0780 	    7.0000 	   58.0000 	   11.2347 
    1.1063 	   34.0960 	    7.0000 	   58.0000 	   11.2707 
    1.1826 	   34.1160 	    7.0000 	   58.0000 	   11.3108 
    1.1063 	   34.1335 	    7.0000 	   58.0000 	   11.3458 
    1.2741 	   34.1515 	    7.0000 	   58.0000 	   11.3818 
    1.0300 	   34.1700 	    7.0000 	   58.0000 	   11.4188 
    1.0758 	   34.1890 	    7.0000 	   58.0000 	   11.4568 
    1.1368 	   34.2080 	    7.0000 	   58.0000 	   11.4948 
    1.1063 	   34.2285 	    7.0000 	   58.0000 	   11.5358 
    1.0452 	   34.2490 	    7.0000 	   58.0000 	   11.5768 
    0.7706 	   34.2690 	    7.0000 	   58.0000 	   11.6168 
    0.9842 	   34.2905 	    7.0000 	   58.0000 	   11.6598 
    1.1063 	   34.3120 	    7.0000 	   58.0000 	   11.7028 
    1.0758 	   34.3325 	    7.0000 	   58.0000 	   11.7438 
    1.1063 	   34.3535 	    7.0000 	   58.0000 	   11.7858 
    0.9842 	   34.3745 	    7.0000 	   58.0000 	   11.8278 
    0.9537 	   34.3955 	    7.0000 	   58.0000 	   11.8698 
    1.1521 	   34.4160 	    7.0000 	   58.0000 	   11.9108 
    1.0605 	   34.4365 	    7.0000 	   58.0000 	   11.9518 
    1.2589 	   34.4575 	    7.0000 	   58.0000 	   11.9938 
    1.1673 	   34.4780 	    7.0000 	   58.0000 	   12.0348 
    1.1368 	   34.4980 	    7.0000 	   58.0000 	   12.0748 
    1.1673 	   34.5190 	    7.0000 	   58.0000 	   12.1168 
    1.1368 	   34.5390 	    7.0000 	   58.0000 	   12.1568 
    1.1368 	   34.5580 	    7.0000 	   58.0000 	   12.1948 
    0.9995 	   34.5770 	    7.0000 	   58.0000 	   12.2328 
    1.1368 	   34.5965 	    7.0000 	   58.0000 	   12.2718 
    0.9842 	   34.6160 	    7.0000 	   58.0000 	   12.3108 
    1.0605 	   34.6345 	    7.0000 	   58.0000 	   12.3478 
    1.1063 	   34.6535 	    7.0000 	   58.0000 	   12.3858 
    1.1673 	   34.6735 	    7.0000 	   58.0000 	   12.4258 
    1.0758 	   34.6925 	    7.0000 	   58.0000 	   12.4638 
    1.1673 	   34.7110 	    7.0000 	   58.0000 	   12.5008 
    1.1368 	   34.7315 	    7.0000 	   58.0000 	   12.5418 
    1.0758 	   34.7510 	    7.0000 	   58.0000 	   12.5808 
    0.7858 	   34.7710 	    7.0000 	   58.0000 	   12.6208 
    1.1215 	   34.7920 	    7.0000 	   58.0000 	   12.6628 
    1.0605 	   34.8125 	    7.0000 	   58.0000 	   12.7038 
    1.1215 	   34.8330 	    7.0000 	   58.0000 	   12.7448 
    0.9384 	   34.8525 	    7.0000 	   58.0000 	   12.7838 
    1.2894 	   34.8745 	    7.0000 	   58.0000 	   12.8278 
    0.8164 	   34.8955 	    7.0000 	   58.0000 	   12.8698 
    1.2436 	   34.9165 	    7.0000 	   58.0000 	   12.9118 
    1.1368 	   34.9370 	    7.0000 	   58.0000 	   12.9528 
    1.1063 	   34.9580 	    7.0000 	   58.0000 	   12.9948 
    1.0147 	   34.9795 	    7.0000 	   58.0000 	   13.0378 
    1.1978 	   35.0000 	    7.0000 	   58.0000 	   13.0789 
    0.8469 	   35.0200 	    7.0000 	   58.0000 	   13.1189 
    1.0605 	   35.0400 	    7.0000 	   58.0000 	   13.1589 
    1.1673 	   35.0605 	    7.0000 	   58.0000 	   13.1999 
    1.0758 	   35.0800 	    7.0000 	   58.0000 	   13.2389 
    1.0758 	   35.1000 	    7.0000 	   58.0000 	   13.2789 
    1.1521 	   35.1190 	    7.0000 	   58.0000 	   13.3169 
    1.0910 	   35.1375 	    7.0000 	   58.0000 	   13.3539 
    1.1063 	   35.1555 	    7.0000 	   58.0000 	   13.3899 
    1.1063 	   35.1740 	    7.0000 	   58.0000 	   13.4269 
    1.1673 	   35.1920 	    7.0000 	   58.0000 	   13.4629 
    1.0605 	   35.2110 	    7.0000 	   58.0000 	   13.5009 
    1.2131 	   35.2305 	    7.0000 	   58.0000 	   13.5399 
    1.0605 	   35.2490 	    7.0000 	   58.0000 	   13.5769 
    1.0300 	   35.2680 	    7.0000 	   58.0000 	   13.6149 
    1.1368 	   35.2880 	    7.0000 	   58.0000 	   13.6549 
    1.1826 	   35.3075 	    7.0000 	   58.0000 	   13.6939 
    1.1521 	   35.3260 	    7.0000 	   58.0000 	   13.7309 
    1.1521 	   35.3470 	    7.0000 	   58.0000 	   13.7729 
    1.1063 	   35.3675 	    7.0000 	   58.0000 	   13.8139 
    1.1978 	   35.3865 	    7.0000 	   58.0000 	   13.8519 
    1.1673 	   35.4055 	    7.0000 	   58.0000 	   13.8899 
    1.1826 	   35.4260 	    7.0000 	   58.0000 	   13.9309 
    1.0910 	   35.4460 	    7.0000 	   58.0000 	   13.9709 
    1.2741 	   35.4680 	    7.0000 	   58.0000 	   14.0149 
    1.3046 	   35.4880 	    7.0000 	   58.0000 	   14.0549 
    1.1673 	   35.5095 	    7.0000 	   58.0000 	   14.0979 
    1.3352 	   35.5305 	    7.0000 	   58.0000 	   14.1399 
    1.2131 	   35.5505 	    7.0000 	   58.0000 	   14.1799 
    1.2284 	   35.5695 	    7.0000 	   58.0000 	   14.2179 
    1.0605 	   35.5885 	    7.0000 	   58.0000 	   14.2559 
    1.1368 	   35.6085 	    7.0000 	   58.0000 	   14.2959 
    1.1673 	   35.6275 	    7.0000 	   58.0000 	   14.3339 
    1.1673 	   35.6460 	    7.0000 	   58.0000 	   14.3709 
    1.1673 	   35.6655 	    7.0000 	   58.0000 	   14.4099 
    1.1978 	   35.6865 	    7.0000 	   58.0000 	   14.4519 
    1.3962 	   35.7065 	    7.0000 	   58.0000 	   14.4919 
    1.2436 	   35.7280 	    7.0000 	   58.0000 	   14.5349 
    1.1978 	   35.7485 	    7.0000 	   58.0000 	   14.5759 
    1.0300 	   35.7700 	    7.0000 	   58.0000 	   14.6189 
    1.2741 	   35.7910 	    7.0000 	   58.0000 	   14.6609 
    1.2436 	   35.8115 	    7.0000 	   58.0000 	   14.7019 
    1.1521 	   35.8320 	    7.0000 	   58.0000 	   14.7429 
    0.8774 	   35.8525 	    7.0000 	   58.0000 	   14.7839 
    1.2589 	   35.8725 	    7.0000 	   58.0000 	   14.8240 
    1.2589 	   35.8920 	    7.0000 	   58.0000 	   14.8620 
    1.3809 	   35.9105 	    7.0000 	   58.0000 	   14.9000 
    1.2589 	   35.9300 	    7.0000 	   58.0000 	   14.9390 
    1.2589 	   35.9510 	    7.0000 	   58.0000 	   14.9810 
    1.1673 	   35.9710 	    7.0000 	   58.0000 	   15.0210 
    1.2284 	   35.9915 	    7.0000 	   58.0000 	   15.0620 
    1.1063 	   36.0110 	    7.0000 	   58.0000 	   15.1010 
    1.1368 	   36.0300 	    7.0000 	   58.0000 	   15.1390 
    1.1215 	   36.0505 	    7.0000 	   58.0000 	   15.1800 
    1.1368 	   36.0700 	    7.0000 	   58.0000 	   15.2190 
    1.1063 	   36.0890 	    7.0000 	   58.0000 	   15.2570 
    1.2284 	   36.1080 	    7.0000 	   58.0000 	   15.2950 
    1.1978 	   36.1270 	    7.0000 	   58.0000 	   15.3330 
    1.1063 	   36.1450 	    7.0000 	   58.0000 	   15.3690 
    1.2436 	   36.1640 	    7.0000 	   58.0000 	   15.4070 
    1.1826 	   36.1835 	    7.0000 	   58.0000 	   15.4460 
    1.2284 	   36.2020 	    7.0000 	   58.0000 	   15.4830 
    1.2131 	   36.2205 	    7.0000 	   58.0000 	   15.5200 
    1.3809 	   36.2400 	    7.0000 	   58.0000 	   15.5590 
    1.1826 	   36.2605 	    7.0000 	   58.0000 	   15.6000 
    1.1215 	   36.2820 	    7.0000 	   58.0000 	   15.6430 
    1.2284 	   36.3025 	    7.0000 	   58.0000 	   15.6840 
    1.1673 	   36.3240 	    7.0000 	   58.0000 	   15.7270 
    1.1826 	   36.3450 	    7.0000 	   58.0000 	   15.7690 
    1.1215 	   36.3660 	    7.0000 	   58.0000 	   15.8110 
    1.1673 	   36.3865 	    7.0000 	   58.0000 	   15.8520 
    0.9842 	   36.4060 	    7.0000 	   58.0000 	   15.8910 
    1.1826 	   36.4275 	    7.0000 	   58.0000 	   15.9340 
    0.9537 	   36.4495 	    7.0000 	   58.0000 	   15.9780 
    1.1368 	   36.4700 	    7.0000 	   58.0000 	   16.0190 
    1.2436 	   36.4910 	    7.0000 	   58.0000 	   16.0610 
    1.2436 	   36.5110 	    7.0000 	   58.0000 	   16.1010 
    1.1521 	   36.5310 	    7.0000 	   58.0000 	   16.1410 
    0.8316 	   36.5500 	    7.0000 	   58.0000 	   16.1790 
    1.0910 	   36.5690 	    7.0000 	   58.0000 	   16.2170 
    1.1368 	   36.5890 	    7.0000 	   58.0000 	   16.2570 
    1.2436 	   36.6085 	    7.0000 	   58.0000 	   16.2960 
    1.3504 	   36.6275 	    7.0000 	   58.0000 	   16.3340 
    1.3046 	   36.6455 	    7.0000 	   58.0000 	   16.3700 
    1.1521 	   36.6650 	    7.0000 	   58.0000 	   16.4090 
    1.2589 	   36.6860 	    7.0000 	   58.0000 	   16.4510 
    1.1978 	   36.7070 	    7.0000 	   58.0000 	   16.4930 
    1.3199 	   36.7285 	    7.0000 	   58.0000 	   16.5360 
    1.2284 	   36.7485 	    7.0000 	   58.0000 	   16.5761 
    1.2436 	   36.7690 	    7.0000 	   58.0000 	   16.6171 
    1.1521 	   36.7905 	    7.0000 	   58.0000 	   16.6601 
    1.2436 	   36.8120 	    7.0000 	   58.0000 	   16.7031 
    1.3046 	   36.8325 	    7.0000 	   58.0000 	   16.7441 
    1.3199 	   36.8520 	    7.0000 	   58.0000 	   16.7831 
    1.1521 	   36.8710 	    7.0000 	   58.0000 	   16.8211 
    1.2741 	   36.8910 	    7.0000 	   58.0000 	   16.8611 
    1.1368 	   36.9100 	    7.0000 	   58.0000 	   16.8991 
    1.3962 	   36.9295 	    7.0000 	   58.0000 	   16.9381 
    1.1215 	   36.9505 	    7.0000 	   58.0000 	   16.9801 
    1.2436 	   36.9715 	    7.0000 	   58.0000 	   17.0221 
    1.3504 	   36.9940 	    7.0000 	   58.0000 	   17.0671 
    1.0910 	   37.0150 	    7.0000 	   58.0000 	   17.1091 
    1.1826 	   37.0375 	    7.0000 	   58.0000 	   17.1541 
    1.1978 	   37.0580 	    7.0000 	   58.0000 	   17.1951 
    1.2741 	   37.0780 	    7.0000 	   58.0000 	   17.2351 
    1.1978 	   37.0975 	    7.0000 	   58.0000 	   17.2741 
    1.2894 	   37.1180 	    7.0000 	   58.0000 	   17.3151 
    1.2436 	   37.1365 	    7.0000 	   58.0000 	   17.3521 
    1.2894 	   37.1545 	    7.0000 	   58.0000 	   17.3881 
    0.9995 	   37.1730 	    7.0000 	   58.0000 	   17.4251 
    1.1673 	   37.1925 	    7.0000 	   58.0000 	   17.4641 
    1.1521 	   37.2125 	    7.0000 	   58.0000 	   17.5041 
    1.1673 	   37.2320 	    7.0000 	   58.0000 	   17.5431 
    1.1673 	   37.2530 	    7.0000 	   58.0000 	   17.5851 
    1.2131 	   37.2740 	    7.0000 	   58.0000 	   17.6271 
    1.2741 	   37.2945 	    7.0000 	   58.0000 	   17.6681 
    1.3352 	   37.3155 	    7.0000 	   58.0000 	   17.7101 
    1.3199 	   37.3355 	    7.0000 	   58.0000 	   17.7501 
    1.2436 	   37.3565 	    7.0000 	   58.0000 	   17.7921 
    1.1063 	   37.3770 	    7.0000 	   58.0000 	   17.8331 
    1.3809 	   37.3975 	    7.0000 	   58.0000 	   17.8741 
    1.1978 	   37.4195 	    7.0000 	   58.0000 	   17.9181 
    0.9842 	   37.4415 	    7.0000 	   58.0000 	   17.9621 
    1.2436 	   37.4640 	    7.0000 	   58.0000 	   18.0071 
    1.0147 	   37.4855 	    7.0000 	   58.0000 	   18.0501 
    1.2284 	   37.5085 	    7.0000 	   58.0000 	   18.0961 
    1.3657 	   37.5290 	    7.0000 	   58.0000 	   18.1371 
    1.2741 	   37.5510 	    7.0000 	   58.0000 	   18.1811 
    1.3352 	   37.5715 	    7.0000 	   58.0000 	   18.2221 
    1.2894 	   37.5925 	    7.0000 	   58.0000 	   18.2641 
    1.3046 	   37.6120 	    7.0000 	   58.0000 	   18.3032 
    1.3199 	   37.6305 	    7.0000 	   58.0000 	   18.3402 
    1.1978 	   37.6495 	    7.0000 	   58.0000 	   18.3782 
    1.2284 	   37.6685 	    7.0000 	   58.0000 	   18.4162 
    1.2131 	   37.6875 	    7.0000 	   58.0000 	   18.4542 
    1.3352 	   37.7065 	    7.0000 	   58.0000 	   18.4922 
    1.2741 	   37.7265 	    7.0000 	   58.0000 	   18.5322 
    1.0910 	   37.7470 	    7.0000 	   58.0000 	   18.5732 
    1.2436 	   37.7685 	    7.0000 	   58.0000 	   18.6162 
    1.3352 	   37.7885 	    7.0000 	   58.0000 	   18.6562 
    1.1521 	   37.8105 	    7.0000 	   58.0000 	   18.7002 
    1.3657 	   37.8320 	    7.0000 	   58.0000 	   18.7432 
    1.1673 	   37.8535 	    7.0000 	   58.0000 	   18.7862 
    1.3046 	   37.8750 	    7.0000 	   58.0000 	   18.8292 
    1.3352 	   37.8945 	    7.0000 	   58.0000 	   18.8682 
    1.4725 	   37.9160 	    7.0000 	   58.0000 	   18.9112 
    1.2894 	   37.9365 	    7.0000 	   58.0000 	   18.9522 
    1.0910 	   37.9585 	    7.0000 	   58.0000 	   18.9962 
    0.9995 	   37.9795 	    7.0000 	   58.0000 	   19.0382 
    1.1826 	   37.9995 	    7.0000 	   58.0000 	   19.0782 
    1.1368 	   38.0200 	    7.0000 	   58.0000 	   19.1192 
    1.1063 	   38.0400 	    7.0000 	   58.0000 	   19.1592 
    1.1673 	   38.0625 	    7.0000 	   58.0000 	   19.2042 
    1.3199 	   38.0815 	    7.0000 	   58.0000 	   19.2422 
    1.1826 	   38.1015 	    7.0000 	   58.0000 	   19.2822 
    1.3962 	   38.1205 	    7.0000 	   58.0000 	   19.3202 
    1.3962 	   38.1395 	    7.0000 	   58.0000 	   19.3582 
    1.4420 	   38.1575 	    7.0000 	   58.0000 	   19.3942 
    1.3199 	   38.1765 	    7.0000 	   58.0000 	   19.4322 
    1.1978 	   38.1970 	    7.0000 	   58.0000 	   19.4732 
    1.2589 	   38.2180 	    7.0000 	   58.0000 	   19.5152 
    1.2284 	   38.2380 	    7.0000 	   58.0000 	   19.5552 
    1.2436 	   38.2595 	    7.0000 	   58.0000 	   19.5982 
    1.2894 	   38.2800 	    7.0000 	   58.0000 	   19.6392 
    1.3046 	   38.3010 	    7.0000 	   58.0000 	   19.6812 
    1.2741 	   38.3210 	    7.0000 	   58.0000 	   19.7212 
    1.4267 	   38.3420 	    7.0000 	   58.0000 	   19.7632 
    1.2436 	   38.3635 	    7.0000 	   58.0000 	   19.8062 
    1.2589 	   38.3840 	    7.0000 	   58.0000 	   19.8472 
    1.2894 	   38.4035 	    7.0000 	   58.0000 	   19.8862 
    1.3352 	   38.4245 	    7.0000 	   58.0000 	   19.9282 
    1.1826 	   38.4455 	    7.0000 	   58.0000 	   19.9692 
    1.2436 	   38.4660 	    7.0000 	   58.0000 	   20.0102 
    1.0605 	   38.4855 	    7.0000 	   58.0000 	   20.0492 
    1.1978 	   38.5045 	    7.0000 	   58.0000 	   20.0873 
    1.2589 	   38.5235 	    7.0000 	   58.0000 	   20.1253 
    1.1215 	   38.5425 	    7.0000 	   58.0000 	   20.1633 
    1.2589 	   38.5620 	    7.0000 	   58.0000 	   20.2023 
    1.2284 	   38.5815 	    7.0000 	   58.0000 	   20.2413 
    1.4267 	   38.6015 	    7.0000 	   58.0000 	   20.2813 
    1.1978 	   38.6210 	    7.0000 	   58.0000 	   20.3203 
    1.3504 	   38.6400 	    7.0000 	   58.0000 	   20.3583 
    1.0758 	   38.6580 	    7.0000 	   58.0000 	   20.3943 
    1.2284 	   38.6765 	    7.0000 	   58.0000 	   20.4313 
    1.2284 	   38.6950 	    7.0000 	   58.0000 	   20.4683 
    1.1826 	   38.7135 	    7.0000 	   58.0000 	   20.5053 
    1.5030 	   38.7320 	    7.0000 	   58.0000 	   20.5423 
    1.1978 	   38.7505 	    7.0000 	   58.0000 	   20.5793 
    1.2436 	   38.7705 	    7.0000 	   58.0000 	   20.6193 
    1.2284 	   38.7895 	    7.0000 	   58.0000 	   20.6573 
    1.3352 	   38.8095 	    7.0000 	   58.0000 	   20.6973 
    1.2589 	   38.8285 	    7.0000 	   58.0000 	   20.7353 
    1.3352 	   38.8470 	    7.0000 	   58.0000 	   20.7723 
    1.3809 	   38.8660 	    7.0000 	   58.0000 	   20.8103 
    1.2741 	   38.8855 	    7.0000 	   58.0000 	   20.8493 
    1.2741 	   38.9045 	    7.0000 	   58.0000 	   20.8873 
    1.3657 	   38.9235 	    7.0000 	   58.0000 	   20.9253 
    1.4878 	   38.9430 	    7.0000 	   58.0000 	   20.9643 
    1.4115 	   38.9630 	    7.0000 	   58.0000 	   21.0043 
    1.3352 	   38.9835 	    7.0000 	   58.0000 	   21.0453 
    1.2131 	   39.0040 	    7.0000 	   58.0000 	   21.0863 
    1.3504 	   39.0260 	    7.0000 	   58.0000 	   21.1303 
    1.3657 	   39.0470 	    7.0000 	   58.0000 	   21.1723 
    1.1978 	   39.0660 	    7.0000 	   58.0000 	   21.2103 
    1.2436 	   39.0860 	    7.0000 	   58.0000 	   21.2503 
    1.3199 	   39.1060 	    7.0000 	   58.0000 	   21.2903 
    1.2131 	   39.1250 	    7.0000 	   58.0000 	   21.3283 
    1.3962 	   39.1440 	    7.0000 	   58.0000 	   21.3663 
    1.4115 	   39.1625 	    7.0000 	   58.0000 	   21.4033 
    1.3352 	   39.1815 	    7.0000 	   58.0000 	   21.4413 
    1.5946 	   39.2015 	    7.0000 	   58.0000 	   21.4813 
    1.5335 	   39.2225 	    7.0000 	   58.0000 	   21.5233 
    1.2131 	   39.2440 	    7.0000 	   58.0000 	   21.5663 
    1.3046 	   39.2655 	    7.0000 	   58.0000 	   21.6093 
    1.3657 	   39.2860 	    7.0000 	   58.0000 	   21.6503 
    1.4115 	   39.3075 	    7.0000 	   58.0000 	   21.6933 
    1.3962 	   39.3275 	    7.0000 	   58.0000 	   21.7333 
    1.3199 	   39.3495 	    7.0000 	   58.0000 	   21.7773 
    1.3504 	   39.3700 	    7.0000 	   58.0000 	   21.8184 
    1.4725 	   39.3915 	    7.0000 	   58.0000 	   21.8614 
    1.3352 	   39.4120 	    7.0000 	   58.0000 	   21.9024 
    0.9689 	   39.4325 	    7.0000 	   58.0000 	   21.9434 
    1.4267 	   39.4515 	    7.0000 	   58.0000 	   21.9814 
    1.4725 	   39.4705 	    7.0000 	   58.0000 	   22.0194 
    1.3199 	   39.4920 	    7.0000 	   58.0000 	   22.0624 
    1.3962 	   39.5120 	    7.0000 	   58.0000 	   22.1024 
    1.3962 	   39.5335 	    7.0000 	   58.0000 	   22.1454 
    1.2894 	   39.5540 	    7.0000 	   58.0000 	   22.1864 
    1.2894 	   39.5750 	    7.0000 	   58.0000 	   22.2284 
    1.4267 	   39.5960 	    7.0000 	   58.0000 	   22.2704 
    1.2894 	   39.6170 	    7.0000 	   58.0000 	   22.3124 
    1.3199 	   39.6370 	    7.0000 	   58.0000 	   22.3524 
    1.3199 	   39.6555 	    7.0000 	   58.0000 	   22.3894 
    1.3352 	   39.6745 	    7.0000 	   58.0000 	   22.4274 
    1.4267 	   39.6955 	    7.0000 	   58.0000 	   22.4694 
    1.3657 	   39.7165 	    7.0000 	   58.0000 	   22.5114 
    1.2741 	   39.7370 	    7.0000 	   58.0000 	   22.5524 
    1.3962 	   39.7585 	    7.0000 	   58.0000 	   22.5954 
    1.2741 	   39.7800 	    7.0000 	   58.0000 	   22.6384 
    1.3504 	   39.8005 	    7.0000 	   58.0000 	   22.6794 
    1.3352 	   39.8220 	    7.0000 	   58.0000 	   22.7224 
    1.3199 	   39.8435 	    7.0000 	   58.0000 	   22.7654 
    1.3504 	   39.8645 	    7.0000 	   58.0000 	   22.8074 
    1.2589 	   39.8850 	    7.0000 	   58.0000 	   22.8484 
    1.2741 	   39.9050 	    7.0000 	   58.0000 	   22.8884 
    1.3046 	   39.9240 	    7.0000 	   58.0000 	   22.9264 
    1.3504 	   39.9435 	    7.0000 	   58.0000 	   22.9654 
    1.1826 	   39.9620 	    7.0000 	   58.0000 	   23.0024 
    1.3962 	   39.9830 	    7.0000 	   58.0000 	   23.0444 
    1.5030 	   40.0035 	    7.0000 	   58.0000 	   23.0854 
    1.4115 	   40.0245 	    7.0000 	   58.0000 	   23.1274 
    1.3046 	   40.0460 	    7.0000 	   58.0000 	   23.1704 
    1.4115 	   40.0660 	    7.0000 	   58.0000 	   23.2104 
    1.3352 	   40.0855 	    7.0000 	   58.0000 	   23.2494 
    1.5793 	   40.1055 	    7.0000 	   58.0000 	   23.2894 
    1.4878 	   40.1255 	    7.0000 	   58.0000 	   23.3294 
    1.5030 	   40.1450 	    7.0000 	   58.0000 	   23.3684 
    1.2741 	   40.1635 	    7.0000 	   58.0000 	   23.4054 
