Thayer School of Engineering        Instron 4442 Mechanical Testing System
7/5/2018 7:28:53 AM

  Force (N)	Extension (mm)	Not Used	Not Used	Not Used	     Hour	    Minute	    Second
    0.5417 	    0.5090 	    7.0000 	   30.0000 	   48.2568 
    0.4501 	    0.5250 	    7.0000 	   30.0000 	   48.2888 
    0.5264 	    0.5595 	    7.0000 	   30.0000 	   48.3578 
    0.4501 	    0.5895 	    7.0000 	   30.0000 	   48.4178 
    0.3128 	    0.6140 	    7.0000 	   30.0000 	   48.4668 
    0.5722 	    0.6405 	    7.0000 	   30.0000 	   48.5198 
    0.6180 	    0.6670 	    7.0000 	   30.0000 	   48.5728 
    0.3738 	    0.6955 	    7.0000 	   30.0000 	   48.6298 
    0.5264 	    0.7100 	    7.0000 	   30.0000 	   48.6588 
    0.4501 	    0.7380 	    7.0000 	   30.0000 	   48.7148 
    0.5570 	    0.7625 	    7.0000 	   30.0000 	   48.7638 
    0.6027 	    0.7875 	    7.0000 	   30.0000 	   48.8138 
    0.4349 	    0.8125 	    7.0000 	   30.0000 	   48.8638 
    0.4349 	    0.8270 	    7.0000 	   30.0000 	   48.8928 
    0.4349 	    0.8540 	    7.0000 	   30.0000 	   48.9468 
    0.6027 	    0.8685 	    7.0000 	   30.0000 	   48.9758 
    0.1450 	    0.8825 	    7.0000 	   30.0000 	   49.0038 
    0.5112 	    0.9095 	    7.0000 	   30.0000 	   49.0578 
    0.5112 	    0.9370 	    7.0000 	   30.0000 	   49.1128 
    0.5570 	    0.9620 	    7.0000 	   30.0000 	   49.1628 
    0.7095 	    0.9765 	    7.0000 	   30.0000 	   49.1918 
    0.5112 	    1.0035 	    7.0000 	   30.0000 	   49.2458 
    0.5875 	    1.0305 	    7.0000 	   30.0000 	   49.2998 
    0.4959 	    1.0580 	    7.0000 	   30.0000 	   49.3548 
    0.4349 	    1.0835 	    7.0000 	   30.0000 	   49.4058 
    0.6180 	    1.1085 	    7.0000 	   30.0000 	   49.4558 
    0.5570 	    1.1335 	    7.0000 	   30.0000 	   49.5058 
    0.4349 	    1.1595 	    7.0000 	   30.0000 	   49.5578 
    0.5264 	    1.1755 	    7.0000 	   30.0000 	   49.5898 
    0.4807 	    1.2050 	    7.0000 	   30.0000 	   49.6479 
    0.4501 	    1.2300 	    7.0000 	   30.0000 	   49.6989 
    0.6790 	    1.2435 	    7.0000 	   30.0000 	   49.7259 
    0.4959 	    1.2705 	    7.0000 	   30.0000 	   49.7799 
    0.4501 	    1.2960 	    7.0000 	   30.0000 	   49.8309 
    0.5570 	    1.3215 	    7.0000 	   30.0000 	   49.8819 
    0.6180 	    1.3465 	    7.0000 	   30.0000 	   49.9319 
    0.4349 	    1.3720 	    7.0000 	   30.0000 	   49.9829 
    0.4654 	    1.3860 	    7.0000 	   30.0000 	   50.0109 
    0.5722 	    1.4130 	    7.0000 	   30.0000 	   50.0649 
    0.5570 	    1.4380 	    7.0000 	   30.0000 	   50.1149 
    0.5264 	    1.4625 	    7.0000 	   30.0000 	   50.1639 
    0.4959 	    1.4765 	    7.0000 	   30.0000 	   50.1919 
    0.4044 	    1.5045 	    7.0000 	   30.0000 	   50.2479 
    0.4349 	    1.5195 	    7.0000 	   30.0000 	   50.2779 
    0.3891 	    1.5465 	    7.0000 	   30.0000 	   50.3319 
    0.4959 	    1.5720 	    7.0000 	   30.0000 	   50.3829 
    0.3281 	    1.6010 	    7.0000 	   30.0000 	   50.4409 
    0.5875 	    1.6170 	    7.0000 	   30.0000 	   50.4729 
    0.6790 	    1.6320 	    7.0000 	   30.0000 	   50.5029 
    0.5112 	    1.6595 	    7.0000 	   30.0000 	   50.5579 
    0.5417 	    1.6845 	    7.0000 	   30.0000 	   50.6079 
    0.7553 	    1.7005 	    7.0000 	   30.0000 	   50.6399 
    0.4196 	    1.7155 	    7.0000 	   30.0000 	   50.6699 
    0.5264 	    1.7430 	    7.0000 	   30.0000 	   50.7249 
    0.4044 	    1.7575 	    7.0000 	   30.0000 	   50.7539 
    0.6027 	    1.7715 	    7.0000 	   30.0000 	   50.7819 
    0.6180 	    1.7855 	    7.0000 	   30.0000 	   50.8099 
    0.5417 	    1.8005 	    7.0000 	   30.0000 	   50.8399 
    0.5722 	    1.8160 	    7.0000 	   30.0000 	   50.8709 
    0.5417 	    1.8325 	    7.0000 	   30.0000 	   50.9039 
    0.3281 	    1.8485 	    7.0000 	   30.0000 	   50.9359 
    0.5570 	    1.8650 	    7.0000 	   30.0000 	   50.9689 
    0.5570 	    1.8805 	    7.0000 	   30.0000 	   50.9999 
    0.6180 	    1.8965 	    7.0000 	   30.0000 	   51.0319 
    0.3738 	    1.9115 	    7.0000 	   30.0000 	   51.0619 
    0.5264 	    1.9270 	    7.0000 	   30.0000 	   51.0929 
    0.4044 	    1.9425 	    7.0000 	   30.0000 	   51.1239 
    0.4349 	    1.9570 	    7.0000 	   30.0000 	   51.1529 
    0.4654 	    1.9725 	    7.0000 	   30.0000 	   51.1839 
    0.5112 	    1.9885 	    7.0000 	   30.0000 	   51.2159 
    0.6485 	    2.0040 	    7.0000 	   30.0000 	   51.2469 
    0.5570 	    2.0185 	    7.0000 	   30.0000 	   51.2759 
    0.5112 	    2.0345 	    7.0000 	   30.0000 	   51.3079 
    0.5722 	    2.0500 	    7.0000 	   30.0000 	   51.3390 
    0.5264 	    2.0655 	    7.0000 	   30.0000 	   51.3699 
    0.5264 	    2.0815 	    7.0000 	   30.0000 	   51.4020 
    0.4654 	    2.0965 	    7.0000 	   30.0000 	   51.4320 
    0.5264 	    2.1105 	    7.0000 	   30.0000 	   51.4600 
    0.4501 	    2.1230 	    7.0000 	   30.0000 	   51.4850 
    0.5875 	    2.1385 	    7.0000 	   30.0000 	   51.5160 
    0.6027 	    2.1530 	    7.0000 	   30.0000 	   51.5450 
    0.5570 	    2.1655 	    7.0000 	   30.0000 	   51.5700 
    0.5112 	    2.1805 	    7.0000 	   30.0000 	   51.6000 
    0.5722 	    2.1950 	    7.0000 	   30.0000 	   51.6290 
    0.5570 	    2.2090 	    7.0000 	   30.0000 	   51.6570 
    0.6485 	    2.2220 	    7.0000 	   30.0000 	   51.6830 
    0.5112 	    2.2355 	    7.0000 	   30.0000 	   51.7100 
    0.4807 	    2.2495 	    7.0000 	   30.0000 	   51.7380 
    0.2976 	    2.2620 	    7.0000 	   30.0000 	   51.7630 
    0.2213 	    2.2755 	    7.0000 	   30.0000 	   51.7900 
    0.4196 	    2.3045 	    7.0000 	   30.0000 	   51.8480 
    0.3738 	    2.3185 	    7.0000 	   30.0000 	   51.8750 
    0.4501 	    2.3345 	    7.0000 	   30.0000 	   51.9080 
    0.6180 	    2.3490 	    7.0000 	   30.0000 	   51.9370 
    0.4349 	    2.3645 	    7.0000 	   30.0000 	   51.9680 
    0.4959 	    2.3810 	    7.0000 	   30.0000 	   52.0010 
    0.4807 	    2.3970 	    7.0000 	   30.0000 	   52.0330 
    0.6485 	    2.4130 	    7.0000 	   30.0000 	   52.0650 
    0.5112 	    2.4280 	    7.0000 	   30.0000 	   52.0950 
    0.4501 	    2.4435 	    7.0000 	   30.0000 	   52.1260 
    0.4959 	    2.4605 	    7.0000 	   30.0000 	   52.1600 
    0.4349 	    2.4775 	    7.0000 	   30.0000 	   52.1940 
    0.4349 	    2.4935 	    7.0000 	   30.0000 	   52.2260 
    0.4196 	    2.5100 	    7.0000 	   30.0000 	   52.2590 
    0.4654 	    2.5255 	    7.0000 	   30.0000 	   52.2900 
    0.6180 	    2.5410 	    7.0000 	   30.0000 	   52.3210 
    0.4959 	    2.5590 	    7.0000 	   30.0000 	   52.3570 
    0.0839 	    2.5745 	    7.0000 	   30.0000 	   52.3880 
    0.4501 	    2.5910 	    7.0000 	   30.0000 	   52.4210 
    0.6638 	    2.6070 	    7.0000 	   30.0000 	   52.4530 
    0.4959 	    2.6225 	    7.0000 	   30.0000 	   52.4840 
    0.6027 	    2.6375 	    7.0000 	   30.0000 	   52.5140 
    0.4196 	    2.6505 	    7.0000 	   30.0000 	   52.5400 
    0.4959 	    2.6660 	    7.0000 	   30.0000 	   52.5710 
    0.6485 	    2.6815 	    7.0000 	   30.0000 	   52.6020 
    0.4959 	    2.6940 	    7.0000 	   30.0000 	   52.6270 
    0.6332 	    2.7090 	    7.0000 	   30.0000 	   52.6570 
    0.5112 	    2.7220 	    7.0000 	   30.0000 	   52.6830 
    0.2823 	    2.7355 	    7.0000 	   30.0000 	   52.7100 
    0.4501 	    2.7480 	    7.0000 	   30.0000 	   52.7350 
    0.5570 	    2.7605 	    7.0000 	   30.0000 	   52.7600 
    0.4044 	    2.7750 	    7.0000 	   30.0000 	   52.7890 
    0.6027 	    2.7910 	    7.0000 	   30.0000 	   52.8210 
    0.4807 	    2.8070 	    7.0000 	   30.0000 	   52.8530 
    0.5112 	    2.8220 	    7.0000 	   30.0000 	   52.8830 
    0.7095 	    2.8375 	    7.0000 	   30.0000 	   52.9140 
    0.4654 	    2.8525 	    7.0000 	   30.0000 	   52.9440 
    0.4501 	    2.8685 	    7.0000 	   30.0000 	   52.9760 
    0.3891 	    2.8845 	    7.0000 	   30.0000 	   53.0080 
    0.4959 	    2.9005 	    7.0000 	   30.0000 	   53.0400 
    0.4501 	    2.9155 	    7.0000 	   30.0000 	   53.0700 
    0.5570 	    2.9330 	    7.0000 	   30.0000 	   53.1050 
    0.6180 	    2.9485 	    7.0000 	   30.0000 	   53.1361 
    0.5264 	    2.9635 	    7.0000 	   30.0000 	   53.1661 
    0.6180 	    2.9775 	    7.0000 	   30.0000 	   53.1931 
    0.4959 	    2.9940 	    7.0000 	   30.0000 	   53.2271 
    0.5112 	    3.0100 	    7.0000 	   30.0000 	   53.2591 
    0.5112 	    3.0255 	    7.0000 	   30.0000 	   53.2901 
    0.5112 	    3.0420 	    7.0000 	   30.0000 	   53.3231 
    0.5875 	    3.0575 	    7.0000 	   30.0000 	   53.3541 
    0.5875 	    3.0735 	    7.0000 	   30.0000 	   53.3861 
    0.6180 	    3.0910 	    7.0000 	   30.0000 	   53.4211 
    0.4044 	    3.1060 	    7.0000 	   30.0000 	   53.4511 
    0.4044 	    3.1215 	    7.0000 	   30.0000 	   53.4821 
    0.5417 	    3.1365 	    7.0000 	   30.0000 	   53.5121 
    0.6943 	    3.1500 	    7.0000 	   30.0000 	   53.5391 
    0.6027 	    3.1635 	    7.0000 	   30.0000 	   53.5661 
    0.2518 	    3.1780 	    7.0000 	   30.0000 	   53.5951 
    0.5722 	    3.1920 	    7.0000 	   30.0000 	   53.6231 
    0.5264 	    3.2050 	    7.0000 	   30.0000 	   53.6491 
    0.4044 	    3.2185 	    7.0000 	   30.0000 	   53.6761 
    0.5264 	    3.2335 	    7.0000 	   30.0000 	   53.7061 
    0.4501 	    3.2460 	    7.0000 	   30.0000 	   53.7311 
    0.5112 	    3.2585 	    7.0000 	   30.0000 	   53.7561 
    0.6027 	    3.2710 	    7.0000 	   30.0000 	   53.7811 
    0.6332 	    3.2855 	    7.0000 	   30.0000 	   53.8101 
    0.5570 	    3.2990 	    7.0000 	   30.0000 	   53.8371 
    0.5112 	    3.3125 	    7.0000 	   30.0000 	   53.8641 
    0.6180 	    3.3260 	    7.0000 	   30.0000 	   53.8911 
    0.5112 	    3.3430 	    7.0000 	   30.0000 	   53.9251 
    0.4349 	    3.3580 	    7.0000 	   30.0000 	   53.9551 
    0.4349 	    3.3740 	    7.0000 	   30.0000 	   53.9871 
    0.4349 	    3.3915 	    7.0000 	   30.0000 	   54.0221 
    0.5875 	    3.4075 	    7.0000 	   30.0000 	   54.0541 
    0.5264 	    3.4225 	    7.0000 	   30.0000 	   54.0841 
    0.5112 	    3.4385 	    7.0000 	   30.0000 	   54.1161 
    0.4196 	    3.4545 	    7.0000 	   30.0000 	   54.1481 
    0.6027 	    3.4700 	    7.0000 	   30.0000 	   54.1791 
    0.4349 	    3.4860 	    7.0000 	   30.0000 	   54.2101 
    0.3433 	    3.5010 	    7.0000 	   30.0000 	   54.2411 
    0.2976 	    3.5170 	    7.0000 	   30.0000 	   54.2731 
    0.6485 	    3.5335 	    7.0000 	   30.0000 	   54.3061 
    0.4349 	    3.5490 	    7.0000 	   30.0000 	   54.3371 
    0.5875 	    3.5645 	    7.0000 	   30.0000 	   54.3681 
    0.3891 	    3.5805 	    7.0000 	   30.0000 	   54.4001 
    0.4959 	    3.5970 	    7.0000 	   30.0000 	   54.4331 
    0.4349 	    3.6120 	    7.0000 	   30.0000 	   54.4631 
    0.4959 	    3.6270 	    7.0000 	   30.0000 	   54.4931 
    0.5112 	    3.6435 	    7.0000 	   30.0000 	   54.5261 
    0.5264 	    3.6575 	    7.0000 	   30.0000 	   54.5541 
    0.3738 	    3.6705 	    7.0000 	   30.0000 	   54.5801 
    0.5722 	    3.6860 	    7.0000 	   30.0000 	   54.6111 
    0.4349 	    3.7000 	    7.0000 	   30.0000 	   54.6391 
    0.5570 	    3.7130 	    7.0000 	   30.0000 	   54.6651 
    0.5264 	    3.7285 	    7.0000 	   30.0000 	   54.6961 
    0.6180 	    3.7410 	    7.0000 	   30.0000 	   54.7211 
    0.4196 	    3.7540 	    7.0000 	   30.0000 	   54.7471 
    0.4654 	    3.7670 	    7.0000 	   30.0000 	   54.7731 
    0.4807 	    3.7820 	    7.0000 	   30.0000 	   54.8031 
    0.4959 	    3.7955 	    7.0000 	   30.0000 	   54.8301 
    0.5112 	    3.8085 	    7.0000 	   30.0000 	   54.8562 
    0.4349 	    3.8220 	    7.0000 	   30.0000 	   54.8832 
    0.5417 	    3.8370 	    7.0000 	   30.0000 	   54.9132 
    0.5722 	    3.8525 	    7.0000 	   30.0000 	   54.9442 
    0.6790 	    3.8675 	    7.0000 	   30.0000 	   54.9742 
    0.4807 	    3.8830 	    7.0000 	   30.0000 	   55.0052 
    0.5875 	    3.8990 	    7.0000 	   30.0000 	   55.0372 
    0.5417 	    3.9145 	    7.0000 	   30.0000 	   55.0682 
    0.4196 	    3.9300 	    7.0000 	   30.0000 	   55.0992 
    0.6180 	    3.9460 	    7.0000 	   30.0000 	   55.1312 
    0.3738 	    3.9610 	    7.0000 	   30.0000 	   55.1612 
    0.4959 	    3.9760 	    7.0000 	   30.0000 	   55.1912 
    0.4959 	    3.9925 	    7.0000 	   30.0000 	   55.2242 
    0.3738 	    4.0075 	    7.0000 	   30.0000 	   55.2542 
    0.5875 	    4.0230 	    7.0000 	   30.0000 	   55.2852 
    0.4501 	    4.0400 	    7.0000 	   30.0000 	   55.3192 
    0.5264 	    4.0545 	    7.0000 	   30.0000 	   55.3482 
    0.5112 	    4.0695 	    7.0000 	   30.0000 	   55.3782 
    0.5417 	    4.0855 	    7.0000 	   30.0000 	   55.4102 
    0.4044 	    4.1010 	    7.0000 	   30.0000 	   55.4412 
    0.6180 	    4.1160 	    7.0000 	   30.0000 	   55.4712 
    0.3128 	    4.1315 	    7.0000 	   30.0000 	   55.5022 
    0.4501 	    4.1455 	    7.0000 	   30.0000 	   55.5302 
    0.5417 	    4.1590 	    7.0000 	   30.0000 	   55.5572 
    0.3738 	    4.1725 	    7.0000 	   30.0000 	   55.5842 
    0.4044 	    4.1865 	    7.0000 	   30.0000 	   55.6122 
    0.5875 	    4.2000 	    7.0000 	   30.0000 	   55.6392 
    0.5417 	    4.2140 	    7.0000 	   30.0000 	   55.6672 
    0.4501 	    4.2285 	    7.0000 	   30.0000 	   55.6962 
    0.4959 	    4.2415 	    7.0000 	   30.0000 	   55.7222 
    0.5875 	    4.2540 	    7.0000 	   30.0000 	   55.7472 
    0.5417 	    4.2680 	    7.0000 	   30.0000 	   55.7752 
    0.5722 	    4.2825 	    7.0000 	   30.0000 	   55.8042 
    0.6638 	    4.2975 	    7.0000 	   30.0000 	   55.8342 
    0.4349 	    4.3125 	    7.0000 	   30.0000 	   55.8642 
    0.2060 	    4.3275 	    7.0000 	   30.0000 	   55.8942 
    0.5570 	    4.3450 	    7.0000 	   30.0000 	   55.9292 
    0.5112 	    4.3610 	    7.0000 	   30.0000 	   55.9612 
    0.5570 	    4.3765 	    7.0000 	   30.0000 	   55.9922 
    0.6485 	    4.3915 	    7.0000 	   30.0000 	   56.0222 
    0.6180 	    4.4075 	    7.0000 	   30.0000 	   56.0542 
    0.5264 	    4.4235 	    7.0000 	   30.0000 	   56.0862 
    0.3738 	    4.4405 	    7.0000 	   30.0000 	   56.1202 
    0.4654 	    4.4570 	    7.0000 	   30.0000 	   56.1532 
    0.7401 	    4.4725 	    7.0000 	   30.0000 	   56.1842 
    0.3128 	    4.4880 	    7.0000 	   30.0000 	   56.2152 
    0.5722 	    4.5035 	    7.0000 	   30.0000 	   56.2462 
    0.4959 	    4.5190 	    7.0000 	   30.0000 	   56.2772 
    0.6180 	    4.5360 	    7.0000 	   30.0000 	   56.3112 
    0.4959 	    4.5510 	    7.0000 	   30.0000 	   56.3412 
    0.6332 	    4.5655 	    7.0000 	   30.0000 	   56.3702 
    0.4501 	    4.5820 	    7.0000 	   30.0000 	   56.4032 
    0.4654 	    4.5970 	    7.0000 	   30.0000 	   56.4332 
    0.4654 	    4.6125 	    7.0000 	   30.0000 	   56.4642 
    0.4807 	    4.6270 	    7.0000 	   30.0000 	   56.4932 
    0.5264 	    4.6435 	    7.0000 	   30.0000 	   56.5262 
    0.5570 	    4.6570 	    7.0000 	   30.0000 	   56.5532 
    0.4959 	    4.6710 	    7.0000 	   30.0000 	   56.5812 
    0.4349 	    4.6845 	    7.0000 	   30.0000 	   56.6082 
    0.4196 	    4.6985 	    7.0000 	   30.0000 	   56.6363 
    0.7401 	    4.7120 	    7.0000 	   30.0000 	   56.6633 
    0.3128 	    4.7260 	    7.0000 	   30.0000 	   56.6913 
    0.4349 	    4.7405 	    7.0000 	   30.0000 	   56.7203 
    0.6180 	    4.7535 	    7.0000 	   30.0000 	   56.7463 
    0.5264 	    4.7670 	    7.0000 	   30.0000 	   56.7733 
    0.4959 	    4.7810 	    7.0000 	   30.0000 	   56.8013 
    0.5570 	    4.7940 	    7.0000 	   30.0000 	   56.8273 
    0.5875 	    4.8090 	    7.0000 	   30.0000 	   56.8573 
    0.6027 	    4.8245 	    7.0000 	   30.0000 	   56.8883 
    0.6180 	    4.8420 	    7.0000 	   30.0000 	   56.9233 
    0.5875 	    4.8565 	    7.0000 	   30.0000 	   56.9523 
    0.3738 	    4.8725 	    7.0000 	   30.0000 	   56.9843 
    0.5722 	    4.8870 	    7.0000 	   30.0000 	   57.0133 
    0.4349 	    4.9030 	    7.0000 	   30.0000 	   57.0453 
    0.4654 	    4.9190 	    7.0000 	   30.0000 	   57.0773 
    0.6180 	    4.9345 	    7.0000 	   30.0000 	   57.1083 
    0.5264 	    4.9495 	    7.0000 	   30.0000 	   57.1383 
    0.5112 	    4.9665 	    7.0000 	   30.0000 	   57.1723 
    0.5570 	    4.9825 	    7.0000 	   30.0000 	   57.2043 
    0.6790 	    4.9975 	    7.0000 	   30.0000 	   57.2343 
    0.4807 	    5.0120 	    7.0000 	   30.0000 	   57.2633 
    0.6180 	    5.0275 	    7.0000 	   30.0000 	   57.2943 
    0.5417 	    5.0435 	    7.0000 	   30.0000 	   57.3263 
    0.5112 	    5.0585 	    7.0000 	   30.0000 	   57.3563 
    0.4807 	    5.0740 	    7.0000 	   30.0000 	   57.3873 
    0.3586 	    5.0905 	    7.0000 	   30.0000 	   57.4203 
    0.5722 	    5.1070 	    7.0000 	   30.0000 	   57.4533 
    0.6485 	    5.1240 	    7.0000 	   30.0000 	   57.4873 
    0.4349 	    5.1410 	    7.0000 	   30.0000 	   57.5213 
    0.5722 	    5.1565 	    7.0000 	   30.0000 	   57.5523 
    0.5417 	    5.1705 	    7.0000 	   30.0000 	   57.5803 
    0.5722 	    5.1850 	    7.0000 	   30.0000 	   57.6093 
    0.5875 	    5.1995 	    7.0000 	   30.0000 	   57.6383 
    0.4654 	    5.2135 	    7.0000 	   30.0000 	   57.6663 
    0.5875 	    5.2270 	    7.0000 	   30.0000 	   57.6933 
    0.4959 	    5.2415 	    7.0000 	   30.0000 	   57.7223 
    0.6180 	    5.2545 	    7.0000 	   30.0000 	   57.7483 
    0.4196 	    5.2690 	    7.0000 	   30.0000 	   57.7773 
    0.6027 	    5.2850 	    7.0000 	   30.0000 	   57.8093 
    0.6180 	    5.3015 	    7.0000 	   30.0000 	   57.8423 
    0.6790 	    5.3170 	    7.0000 	   30.0000 	   57.8733 
    0.4807 	    5.3335 	    7.0000 	   30.0000 	   57.9063 
    0.4959 	    5.3490 	    7.0000 	   30.0000 	   57.9373 
    0.4807 	    5.3655 	    7.0000 	   30.0000 	   57.9703 
    0.4349 	    5.3805 	    7.0000 	   30.0000 	   58.0003 
    0.4807 	    5.3955 	    7.0000 	   30.0000 	   58.0303 
    0.4196 	    5.4105 	    7.0000 	   30.0000 	   58.0603 
    0.2823 	    5.4260 	    7.0000 	   30.0000 	   58.0913 
    0.6027 	    5.4425 	    7.0000 	   30.0000 	   58.1243 
    0.1755 	    5.4585 	    7.0000 	   30.0000 	   58.1563 
    0.5722 	    5.4745 	    7.0000 	   30.0000 	   58.1883 
    0.5112 	    5.4910 	    7.0000 	   30.0000 	   58.2213 
    0.4807 	    5.5075 	    7.0000 	   30.0000 	   58.2543 
    0.6332 	    5.5225 	    7.0000 	   30.0000 	   58.2843 
    0.5722 	    5.5395 	    7.0000 	   30.0000 	   58.3183 
    0.4654 	    5.5560 	    7.0000 	   30.0000 	   58.3513 
    0.4654 	    5.5710 	    7.0000 	   30.0000 	   58.3814 
    0.6332 	    5.5875 	    7.0000 	   30.0000 	   58.4144 
    0.6027 	    5.6015 	    7.0000 	   30.0000 	   58.4424 
    0.4196 	    5.6170 	    7.0000 	   30.0000 	   58.4734 
    0.5722 	    5.6330 	    7.0000 	   30.0000 	   58.5054 
    0.5264 	    5.6470 	    7.0000 	   30.0000 	   58.5334 
    0.4654 	    5.6625 	    7.0000 	   30.0000 	   58.5644 
    0.5264 	    5.6775 	    7.0000 	   30.0000 	   58.5944 
    0.7248 	    5.6915 	    7.0000 	   30.0000 	   58.6224 
    0.5264 	    5.7050 	    7.0000 	   30.0000 	   58.6494 
    0.3738 	    5.7190 	    7.0000 	   30.0000 	   58.6774 
    0.5112 	    5.7340 	    7.0000 	   30.0000 	   58.7074 
    0.4501 	    5.7475 	    7.0000 	   30.0000 	   58.7334 
    0.5417 	    5.7605 	    7.0000 	   30.0000 	   58.7604 
    0.5264 	    5.7755 	    7.0000 	   30.0000 	   58.7904 
    0.5570 	    5.7915 	    7.0000 	   30.0000 	   58.8224 
    0.5722 	    5.8065 	    7.0000 	   30.0000 	   58.8524 
    0.4349 	    5.8225 	    7.0000 	   30.0000 	   58.8844 
    0.4044 	    5.8390 	    7.0000 	   30.0000 	   58.9174 
    0.5417 	    5.8545 	    7.0000 	   30.0000 	   58.9484 
    0.4349 	    5.8700 	    7.0000 	   30.0000 	   58.9794 
    0.5417 	    5.8850 	    7.0000 	   30.0000 	   59.0094 
    0.4349 	    5.9015 	    7.0000 	   30.0000 	   59.0424 
    0.5722 	    5.9165 	    7.0000 	   30.0000 	   59.0724 
    0.4501 	    5.9335 	    7.0000 	   30.0000 	   59.1064 
    0.5417 	    5.9500 	    7.0000 	   30.0000 	   59.1394 
    0.5570 	    5.9660 	    7.0000 	   30.0000 	   59.1714 
    0.5112 	    5.9830 	    7.0000 	   30.0000 	   59.2054 
    0.5417 	    5.9980 	    7.0000 	   30.0000 	   59.2354 
    0.5722 	    6.0145 	    7.0000 	   30.0000 	   59.2684 
    0.6332 	    6.0310 	    7.0000 	   30.0000 	   59.3014 
    0.5722 	    6.0490 	    7.0000 	   30.0000 	   59.3374 
    0.6180 	    6.0645 	    7.0000 	   30.0000 	   59.3684 
    0.5722 	    6.0805 	    7.0000 	   30.0000 	   59.4004 
    0.4349 	    6.0950 	    7.0000 	   30.0000 	   59.4294 
    0.6332 	    6.1090 	    7.0000 	   30.0000 	   59.4574 
    0.5264 	    6.1255 	    7.0000 	   30.0000 	   59.4904 
    0.6485 	    6.1420 	    7.0000 	   30.0000 	   59.5234 
    0.3738 	    6.1555 	    7.0000 	   30.0000 	   59.5504 
    0.4349 	    6.1700 	    7.0000 	   30.0000 	   59.5794 
    0.4044 	    6.1840 	    7.0000 	   30.0000 	   59.6074 
    0.4807 	    6.1985 	    7.0000 	   30.0000 	   59.6364 
    0.6332 	    6.2125 	    7.0000 	   30.0000 	   59.6644 
    0.5417 	    6.2270 	    7.0000 	   30.0000 	   59.6934 
    0.1755 	    6.2415 	    7.0000 	   30.0000 	   59.7224 
    0.5570 	    6.2545 	    7.0000 	   30.0000 	   59.7484 
    0.6485 	    6.2690 	    7.0000 	   30.0000 	   59.7774 
    0.6790 	    6.2845 	    7.0000 	   30.0000 	   59.8084 
    0.5264 	    6.3015 	    7.0000 	   30.0000 	   59.8424 
    0.5264 	    6.3180 	    7.0000 	   30.0000 	   59.8754 
    0.3738 	    6.3355 	    7.0000 	   30.0000 	   59.9104 
    0.6790 	    6.3510 	    7.0000 	   30.0000 	   59.9414 
    0.4807 	    6.3670 	    7.0000 	   30.0000 	   59.9734 
    0.5112 	    6.3830 	    7.0000 	   31.0000 	    0.0054 
    0.4807 	    6.3990 	    7.0000 	   31.0000 	    0.0364 
    0.5875 	    6.4150 	    7.0000 	   31.0000 	    0.0694 
    0.5417 	    6.4305 	    7.0000 	   31.0000 	    0.1005 
    0.6027 	    6.4475 	    7.0000 	   31.0000 	    0.1345 
    0.4959 	    6.4635 	    7.0000 	   31.0000 	    0.1665 
    0.3281 	    6.4795 	    7.0000 	   31.0000 	    0.1985 
    0.6638 	    6.4965 	    7.0000 	   31.0000 	    0.2325 
    0.6027 	    6.5130 	    7.0000 	   31.0000 	    0.2655 
    0.5264 	    6.5295 	    7.0000 	   31.0000 	    0.2985 
    0.5722 	    6.5455 	    7.0000 	   31.0000 	    0.3305 
    0.5570 	    6.5615 	    7.0000 	   31.0000 	    0.3625 
    0.2823 	    6.5770 	    7.0000 	   31.0000 	    0.3935 
    0.5570 	    6.5930 	    7.0000 	   31.0000 	    0.4255 
    0.5264 	    6.6085 	    7.0000 	   31.0000 	    0.4565 
    0.5112 	    6.6250 	    7.0000 	   31.0000 	    0.4895 
    0.4501 	    6.6415 	    7.0000 	   31.0000 	    0.5225 
    0.5875 	    6.6555 	    7.0000 	   31.0000 	    0.5505 
    0.4501 	    6.6700 	    7.0000 	   31.0000 	    0.5795 
    0.5722 	    6.6850 	    7.0000 	   31.0000 	    0.6095 
    0.5570 	    6.6990 	    7.0000 	   31.0000 	    0.6375 
    0.5722 	    6.7135 	    7.0000 	   31.0000 	    0.6665 
    0.6485 	    6.7275 	    7.0000 	   31.0000 	    0.6945 
    0.6332 	    6.7420 	    7.0000 	   31.0000 	    0.7235 
    0.5112 	    6.7560 	    7.0000 	   31.0000 	    0.7515 
    0.5722 	    6.7695 	    7.0000 	   31.0000 	    0.7785 
    0.5722 	    6.7830 	    7.0000 	   31.0000 	    0.8055 
    0.6790 	    6.7970 	    7.0000 	   31.0000 	    0.8335 
    0.4959 	    6.8135 	    7.0000 	   31.0000 	    0.8665 
    0.4044 	    6.8295 	    7.0000 	   31.0000 	    0.8985 
    0.5264 	    6.8465 	    7.0000 	   31.0000 	    0.9325 
    0.5112 	    6.8630 	    7.0000 	   31.0000 	    0.9655 
    0.5112 	    6.8795 	    7.0000 	   31.0000 	    0.9985 
    0.5417 	    6.8960 	    7.0000 	   31.0000 	    1.0315 
    0.5570 	    6.9115 	    7.0000 	   31.0000 	    1.0625 
    0.2518 	    6.9285 	    7.0000 	   31.0000 	    1.0965 
    0.7401 	    6.9440 	    7.0000 	   31.0000 	    1.1275 
    0.4044 	    6.9590 	    7.0000 	   31.0000 	    1.1575 
    0.6332 	    6.9755 	    7.0000 	   31.0000 	    1.1905 
    0.5722 	    6.9920 	    7.0000 	   31.0000 	    1.2235 
    0.6180 	    7.0080 	    7.0000 	   31.0000 	    1.2555 
    0.4959 	    7.0240 	    7.0000 	   31.0000 	    1.2875 
    0.6180 	    7.0425 	    7.0000 	   31.0000 	    1.3245 
    0.6332 	    7.0600 	    7.0000 	   31.0000 	    1.3595 
    0.6027 	    7.0765 	    7.0000 	   31.0000 	    1.3925 
    0.5417 	    7.0925 	    7.0000 	   31.0000 	    1.4245 
    0.5570 	    7.1080 	    7.0000 	   31.0000 	    1.4555 
    0.5417 	    7.1245 	    7.0000 	   31.0000 	    1.4885 
    0.5264 	    7.1405 	    7.0000 	   31.0000 	    1.5205 
    0.6485 	    7.1570 	    7.0000 	   31.0000 	    1.5535 
    0.5570 	    7.1715 	    7.0000 	   31.0000 	    1.5825 
    0.6180 	    7.1875 	    7.0000 	   31.0000 	    1.6145 
    0.5112 	    7.2025 	    7.0000 	   31.0000 	    1.6445 
    0.6485 	    7.2165 	    7.0000 	   31.0000 	    1.6725 
    0.5112 	    7.2320 	    7.0000 	   31.0000 	    1.7035 
    0.4654 	    7.2460 	    7.0000 	   31.0000 	    1.7315 
    0.5417 	    7.2605 	    7.0000 	   31.0000 	    1.7605 
    0.4807 	    7.2740 	    7.0000 	   31.0000 	    1.7875 
    0.5417 	    7.2875 	    7.0000 	   31.0000 	    1.8145 
    0.4196 	    7.3010 	    7.0000 	   31.0000 	    1.8415 
    0.5264 	    7.3160 	    7.0000 	   31.0000 	    1.8716 
    0.6180 	    7.3320 	    7.0000 	   31.0000 	    1.9036 
    0.3891 	    7.3480 	    7.0000 	   31.0000 	    1.9356 
    0.5417 	    7.3640 	    7.0000 	   31.0000 	    1.9676 
    0.5722 	    7.3800 	    7.0000 	   31.0000 	    1.9996 
    0.5722 	    7.3960 	    7.0000 	   31.0000 	    2.0316 
    0.4959 	    7.4115 	    7.0000 	   31.0000 	    2.0626 
    0.6027 	    7.4275 	    7.0000 	   31.0000 	    2.0946 
    0.5570 	    7.4440 	    7.0000 	   31.0000 	    2.1276 
    0.5112 	    7.4610 	    7.0000 	   31.0000 	    2.1616 
    0.5112 	    7.4775 	    7.0000 	   31.0000 	    2.1946 
    0.3738 	    7.4945 	    7.0000 	   31.0000 	    2.2286 
    0.5112 	    7.5105 	    7.0000 	   31.0000 	    2.2606 
    0.4654 	    7.5270 	    7.0000 	   31.0000 	    2.2936 
    0.4349 	    7.5425 	    7.0000 	   31.0000 	    2.3246 
    0.5875 	    7.5585 	    7.0000 	   31.0000 	    2.3566 
    0.6332 	    7.5750 	    7.0000 	   31.0000 	    2.3896 
    0.5875 	    7.5910 	    7.0000 	   31.0000 	    2.4216 
    0.4044 	    7.6065 	    7.0000 	   31.0000 	    2.4526 
    0.6027 	    7.6235 	    7.0000 	   31.0000 	    2.4866 
    0.4807 	    7.6420 	    7.0000 	   31.0000 	    2.5236 
    0.3891 	    7.6585 	    7.0000 	   31.0000 	    2.5566 
    0.4654 	    7.6730 	    7.0000 	   31.0000 	    2.5856 
    0.4959 	    7.6880 	    7.0000 	   31.0000 	    2.6156 
    0.6180 	    7.7035 	    7.0000 	   31.0000 	    2.6466 
    0.6180 	    7.7185 	    7.0000 	   31.0000 	    2.6766 
    0.5112 	    7.7335 	    7.0000 	   31.0000 	    2.7066 
    0.5722 	    7.7475 	    7.0000 	   31.0000 	    2.7346 
    0.5875 	    7.7625 	    7.0000 	   31.0000 	    2.7646 
    0.6027 	    7.7760 	    7.0000 	   31.0000 	    2.7916 
    0.6180 	    7.7895 	    7.0000 	   31.0000 	    2.8186 
    0.5875 	    7.8050 	    7.0000 	   31.0000 	    2.8496 
    0.5417 	    7.8210 	    7.0000 	   31.0000 	    2.8816 
    0.6332 	    7.8390 	    7.0000 	   31.0000 	    2.9176 
    0.4959 	    7.8555 	    7.0000 	   31.0000 	    2.9506 
    0.5722 	    7.8710 	    7.0000 	   31.0000 	    2.9816 
    0.5875 	    7.8870 	    7.0000 	   31.0000 	    3.0136 
    0.4807 	    7.9030 	    7.0000 	   31.0000 	    3.0456 
    0.4196 	    7.9190 	    7.0000 	   31.0000 	    3.0776 
    0.6180 	    7.9345 	    7.0000 	   31.0000 	    3.1086 
    0.5264 	    7.9510 	    7.0000 	   31.0000 	    3.1416 
    0.6027 	    7.9675 	    7.0000 	   31.0000 	    3.1746 
    0.4501 	    7.9840 	    7.0000 	   31.0000 	    3.2076 
    0.4654 	    8.0015 	    7.0000 	   31.0000 	    3.2426 
    0.5722 	    8.0185 	    7.0000 	   31.0000 	    3.2766 
    0.5722 	    8.0360 	    7.0000 	   31.0000 	    3.3116 
    0.4501 	    8.0520 	    7.0000 	   31.0000 	    3.3436 
    0.5417 	    8.0680 	    7.0000 	   31.0000 	    3.3756 
    0.5722 	    8.0825 	    7.0000 	   31.0000 	    3.4046 
    0.4654 	    8.0985 	    7.0000 	   31.0000 	    3.4366 
    0.5570 	    8.1155 	    7.0000 	   31.0000 	    3.4706 
    0.1450 	    8.1315 	    7.0000 	   31.0000 	    3.5026 
    0.5417 	    8.1485 	    7.0000 	   31.0000 	    3.5366 
    0.4044 	    8.1640 	    7.0000 	   31.0000 	    3.5666 
    0.6180 	    8.1795 	    7.0000 	   31.0000 	    3.5977 
    0.5875 	    8.1935 	    7.0000 	   31.0000 	    3.6257 
    0.5417 	    8.2100 	    7.0000 	   31.0000 	    3.6587 
    0.4654 	    8.2245 	    7.0000 	   31.0000 	    3.6877 
    0.7401 	    8.2410 	    7.0000 	   31.0000 	    3.7207 
    0.5722 	    8.2560 	    7.0000 	   31.0000 	    3.7507 
    0.5417 	    8.2700 	    7.0000 	   31.0000 	    3.7787 
    0.6638 	    8.2840 	    7.0000 	   31.0000 	    3.8067 
    0.6638 	    8.2980 	    7.0000 	   31.0000 	    3.8347 
    0.5417 	    8.3120 	    7.0000 	   31.0000 	    3.8627 
    0.5264 	    8.3275 	    7.0000 	   31.0000 	    3.8937 
    0.6180 	    8.3450 	    7.0000 	   31.0000 	    3.9287 
    0.5570 	    8.3625 	    7.0000 	   31.0000 	    3.9637 
    0.2365 	    8.3800 	    7.0000 	   31.0000 	    3.9987 
    0.4807 	    8.3960 	    7.0000 	   31.0000 	    4.0307 
    0.5264 	    8.4115 	    7.0000 	   31.0000 	    4.0617 
    0.4959 	    8.4290 	    7.0000 	   31.0000 	    4.0967 
    0.4959 	    8.4470 	    7.0000 	   31.0000 	    4.1327 
    0.6180 	    8.4625 	    7.0000 	   31.0000 	    4.1637 
    0.5722 	    8.4790 	    7.0000 	   31.0000 	    4.1967 
    0.6180 	    8.4960 	    7.0000 	   31.0000 	    4.2307 
    0.6027 	    8.5125 	    7.0000 	   31.0000 	    4.2637 
    0.5570 	    8.5285 	    7.0000 	   31.0000 	    4.2957 
    0.5570 	    8.5450 	    7.0000 	   31.0000 	    4.3287 
    0.5875 	    8.5620 	    7.0000 	   31.0000 	    4.3627 
    0.3891 	    8.5790 	    7.0000 	   31.0000 	    4.3967 
    0.5875 	    8.5955 	    7.0000 	   31.0000 	    4.4297 
    0.5722 	    8.6115 	    7.0000 	   31.0000 	    4.4617 
    0.5875 	    8.6275 	    7.0000 	   31.0000 	    4.4937 
    0.6180 	    8.6455 	    7.0000 	   31.0000 	    4.5297 
    0.6943 	    8.6615 	    7.0000 	   31.0000 	    4.5617 
    0.7095 	    8.6770 	    7.0000 	   31.0000 	    4.5927 
    0.5264 	    8.6920 	    7.0000 	   31.0000 	    4.6227 
    0.5417 	    8.7070 	    7.0000 	   31.0000 	    4.6527 
    0.6180 	    8.7230 	    7.0000 	   31.0000 	    4.6847 
    0.4807 	    8.7380 	    7.0000 	   31.0000 	    4.7147 
    0.5722 	    8.7525 	    7.0000 	   31.0000 	    4.7437 
    0.4349 	    8.7670 	    7.0000 	   31.0000 	    4.7727 
    0.6485 	    8.7810 	    7.0000 	   31.0000 	    4.8007 
    0.4807 	    8.7955 	    7.0000 	   31.0000 	    4.8297 
    0.5264 	    8.8100 	    7.0000 	   31.0000 	    4.8587 
    0.4654 	    8.8255 	    7.0000 	   31.0000 	    4.8897 
    0.5570 	    8.8440 	    7.0000 	   31.0000 	    4.9267 
    0.6332 	    8.8610 	    7.0000 	   31.0000 	    4.9607 
    0.5570 	    8.8780 	    7.0000 	   31.0000 	    4.9947 
    0.5264 	    8.8940 	    7.0000 	   31.0000 	    5.0267 
    0.4807 	    8.9100 	    7.0000 	   31.0000 	    5.0587 
    0.5722 	    8.9265 	    7.0000 	   31.0000 	    5.0917 
    0.5875 	    8.9435 	    7.0000 	   31.0000 	    5.1257 
    0.4501 	    8.9605 	    7.0000 	   31.0000 	    5.1597 
    0.6485 	    8.9765 	    7.0000 	   31.0000 	    5.1917 
    0.6027 	    8.9935 	    7.0000 	   31.0000 	    5.2257 
    0.4959 	    9.0095 	    7.0000 	   31.0000 	    5.2577 
    0.5417 	    9.0250 	    7.0000 	   31.0000 	    5.2887 
    0.5264 	    9.0435 	    7.0000 	   31.0000 	    5.3257 
    0.5264 	    9.0595 	    7.0000 	   31.0000 	    5.3578 
    0.4349 	    9.0755 	    7.0000 	   31.0000 	    5.3898 
    0.4349 	    9.0915 	    7.0000 	   31.0000 	    5.4218 
    0.6485 	    9.1075 	    7.0000 	   31.0000 	    5.4538 
    0.5570 	    9.1240 	    7.0000 	   31.0000 	    5.4868 
    0.3586 	    9.1405 	    7.0000 	   31.0000 	    5.5198 
    0.6943 	    9.1580 	    7.0000 	   31.0000 	    5.5548 
    0.3433 	    9.1730 	    7.0000 	   31.0000 	    5.5848 
    0.4959 	    9.1890 	    7.0000 	   31.0000 	    5.6168 
    0.4807 	    9.2035 	    7.0000 	   31.0000 	    5.6458 
    0.6332 	    9.2190 	    7.0000 	   31.0000 	    5.6768 
    0.5722 	    9.2365 	    7.0000 	   31.0000 	    5.7118 
    0.4807 	    9.2515 	    7.0000 	   31.0000 	    5.7418 
    0.6332 	    9.2665 	    7.0000 	   31.0000 	    5.7718 
    0.5112 	    9.2805 	    7.0000 	   31.0000 	    5.7998 
    0.4654 	    9.2960 	    7.0000 	   31.0000 	    5.8298 
    0.6027 	    9.3125 	    7.0000 	   31.0000 	    5.8638 
    0.4501 	    9.3295 	    7.0000 	   31.0000 	    5.8978 
    0.5570 	    9.3460 	    7.0000 	   31.0000 	    5.9308 
    0.4501 	    9.3625 	    7.0000 	   31.0000 	    5.9638 
    0.5417 	    9.3790 	    7.0000 	   31.0000 	    5.9968 
    0.6790 	    9.3955 	    7.0000 	   31.0000 	    6.0298 
    0.4349 	    9.4125 	    7.0000 	   31.0000 	    6.0638 
    0.5875 	    9.4290 	    7.0000 	   31.0000 	    6.0968 
    0.4044 	    9.4475 	    7.0000 	   31.0000 	    6.1338 
    0.7401 	    9.4640 	    7.0000 	   31.0000 	    6.1668 
    0.5112 	    9.4805 	    7.0000 	   31.0000 	    6.1998 
    0.4044 	    9.4960 	    7.0000 	   31.0000 	    6.2308 
    0.5112 	    9.5125 	    7.0000 	   31.0000 	    6.2638 
    0.4959 	    9.5290 	    7.0000 	   31.0000 	    6.2968 
    0.4959 	    9.5470 	    7.0000 	   31.0000 	    6.3328 
    0.5875 	    9.5645 	    7.0000 	   31.0000 	    6.3678 
    0.2670 	    9.5825 	    7.0000 	   31.0000 	    6.4038 
    0.5722 	    9.5985 	    7.0000 	   31.0000 	    6.4358 
    0.4959 	    9.6170 	    7.0000 	   31.0000 	    6.4718 
    0.4654 	    9.6345 	    7.0000 	   31.0000 	    6.5078 
    0.4654 	    9.6535 	    7.0000 	   31.0000 	    6.5458 
    0.4959 	    9.6690 	    7.0000 	   31.0000 	    6.5768 
    0.6485 	    9.6840 	    7.0000 	   31.0000 	    6.6068 
    0.5264 	    9.6990 	    7.0000 	   31.0000 	    6.6368 
    0.6180 	    9.7140 	    7.0000 	   31.0000 	    6.6668 
    0.4807 	    9.7295 	    7.0000 	   31.0000 	    6.6978 
    0.5417 	    9.7450 	    7.0000 	   31.0000 	    6.7288 
    0.6180 	    9.7605 	    7.0000 	   31.0000 	    6.7598 
    0.5722 	    9.7750 	    7.0000 	   31.0000 	    6.7888 
    0.6027 	    9.7890 	    7.0000 	   31.0000 	    6.8168 
    0.4501 	    9.8045 	    7.0000 	   31.0000 	    6.8478 
    0.3128 	    9.8220 	    7.0000 	   31.0000 	    6.8828 
    0.5112 	    9.8395 	    7.0000 	   31.0000 	    6.9178 
    0.4959 	    9.8570 	    7.0000 	   31.0000 	    6.9528 
    0.4654 	    9.8755 	    7.0000 	   31.0000 	    6.9898 
    0.5570 	    9.8925 	    7.0000 	   31.0000 	    7.0238 
    0.4959 	    9.9090 	    7.0000 	   31.0000 	    7.0568 
    0.4959 	    9.9255 	    7.0000 	   31.0000 	    7.0898 
    0.6332 	    9.9415 	    7.0000 	   31.0000 	    7.1219 
    0.5264 	    9.9580 	    7.0000 	   31.0000 	    7.1549 
    0.5112 	    9.9750 	    7.0000 	   31.0000 	    7.1889 
    0.5570 	    9.9915 	    7.0000 	   31.0000 	    7.2219 
    0.6485 	   10.0080 	    7.0000 	   31.0000 	    7.2549 
    0.4807 	   10.0245 	    7.0000 	   31.0000 	    7.2879 
    0.6638 	   10.0425 	    7.0000 	   31.0000 	    7.3239 
    0.6790 	   10.0595 	    7.0000 	   31.0000 	    7.3579 
    0.5722 	   10.0755 	    7.0000 	   31.0000 	    7.3899 
    0.3586 	   10.0925 	    7.0000 	   31.0000 	    7.4239 
    0.5722 	   10.1090 	    7.0000 	   31.0000 	    7.4569 
    0.6485 	   10.1260 	    7.0000 	   31.0000 	    7.4909 
    0.5417 	   10.1425 	    7.0000 	   31.0000 	    7.5239 
    0.5417 	   10.1595 	    7.0000 	   31.0000 	    7.5579 
    0.5417 	   10.1745 	    7.0000 	   31.0000 	    7.5879 
    0.5112 	   10.1895 	    7.0000 	   31.0000 	    7.6179 
    0.4807 	   10.2050 	    7.0000 	   31.0000 	    7.6489 
    0.5264 	   10.2195 	    7.0000 	   31.0000 	    7.6779 
    0.4654 	   10.2350 	    7.0000 	   31.0000 	    7.7089 
    0.4349 	   10.2525 	    7.0000 	   31.0000 	    7.7439 
    0.5875 	   10.2675 	    7.0000 	   31.0000 	    7.7739 
    0.3433 	   10.2835 	    7.0000 	   31.0000 	    7.8059 
    0.6638 	   10.2980 	    7.0000 	   31.0000 	    7.8349 
    0.5722 	   10.3125 	    7.0000 	   31.0000 	    7.8639 
    0.5570 	   10.3285 	    7.0000 	   31.0000 	    7.8959 
    0.4807 	   10.3450 	    7.0000 	   31.0000 	    7.9289 
    0.5722 	   10.3625 	    7.0000 	   31.0000 	    7.9639 
    0.5570 	   10.3800 	    7.0000 	   31.0000 	    7.9989 
    0.6790 	   10.3975 	    7.0000 	   31.0000 	    8.0339 
    0.3281 	   10.4135 	    7.0000 	   31.0000 	    8.0659 
    0.4654 	   10.4300 	    7.0000 	   31.0000 	    8.0989 
    0.5570 	   10.4460 	    7.0000 	   31.0000 	    8.1309 
    0.6332 	   10.4630 	    7.0000 	   31.0000 	    8.1649 
    0.6485 	   10.4800 	    7.0000 	   31.0000 	    8.1989 
    0.4501 	   10.4970 	    7.0000 	   31.0000 	    8.2329 
    0.5570 	   10.5135 	    7.0000 	   31.0000 	    8.2659 
    0.5570 	   10.5300 	    7.0000 	   31.0000 	    8.2989 
    0.5264 	   10.5480 	    7.0000 	   31.0000 	    8.3349 
    0.4959 	   10.5635 	    7.0000 	   31.0000 	    8.3659 
    0.4501 	   10.5800 	    7.0000 	   31.0000 	    8.3989 
    0.6180 	   10.5965 	    7.0000 	   31.0000 	    8.4319 
    0.5264 	   10.6140 	    7.0000 	   31.0000 	    8.4669 
    0.6790 	   10.6310 	    7.0000 	   31.0000 	    8.5009 
    0.5264 	   10.6490 	    7.0000 	   31.0000 	    8.5369 
    0.6332 	   10.6655 	    7.0000 	   31.0000 	    8.5699 
    0.5417 	   10.6815 	    7.0000 	   31.0000 	    8.6019 
    0.2518 	   10.6960 	    7.0000 	   31.0000 	    8.6309 
    0.2365 	   10.7115 	    7.0000 	   31.0000 	    8.6619 
    0.6638 	   10.7275 	    7.0000 	   31.0000 	    8.6939 
    0.6180 	   10.7435 	    7.0000 	   31.0000 	    8.7259 
    0.5570 	   10.7610 	    7.0000 	   31.0000 	    8.7609 
    0.4044 	   10.7755 	    7.0000 	   31.0000 	    8.7899 
    0.4196 	   10.7905 	    7.0000 	   31.0000 	    8.8199 
    0.4349 	   10.8080 	    7.0000 	   31.0000 	    8.8550 
    0.4807 	   10.8250 	    7.0000 	   31.0000 	    8.8890 
    0.6332 	   10.8445 	    7.0000 	   31.0000 	    8.9280 
    0.6790 	   10.8610 	    7.0000 	   31.0000 	    8.9610 
    0.6485 	   10.8785 	    7.0000 	   31.0000 	    8.9960 
    0.5112 	   10.8960 	    7.0000 	   31.0000 	    9.0310 
    0.5112 	   10.9120 	    7.0000 	   31.0000 	    9.0630 
    0.3891 	   10.9295 	    7.0000 	   31.0000 	    9.0980 
    0.5875 	   10.9475 	    7.0000 	   31.0000 	    9.1340 
    0.5112 	   10.9635 	    7.0000 	   31.0000 	    9.1660 
    0.5112 	   10.9800 	    7.0000 	   31.0000 	    9.1990 
    0.5570 	   10.9970 	    7.0000 	   31.0000 	    9.2330 
    0.5722 	   11.0135 	    7.0000 	   31.0000 	    9.2660 
    0.3128 	   11.0310 	    7.0000 	   31.0000 	    9.3010 
    0.4501 	   11.0500 	    7.0000 	   31.0000 	    9.3390 
    0.5112 	   11.0670 	    7.0000 	   31.0000 	    9.3730 
    0.6790 	   11.0840 	    7.0000 	   31.0000 	    9.4070 
    0.6332 	   11.1015 	    7.0000 	   31.0000 	    9.4420 
    0.6638 	   11.1185 	    7.0000 	   31.0000 	    9.4760 
    0.3891 	   11.1350 	    7.0000 	   31.0000 	    9.5090 
    0.6332 	   11.1515 	    7.0000 	   31.0000 	    9.5420 
    0.5264 	   11.1670 	    7.0000 	   31.0000 	    9.5730 
    0.5112 	   11.1825 	    7.0000 	   31.0000 	    9.6040 
    0.7553 	   11.1980 	    7.0000 	   31.0000 	    9.6350 
    0.4349 	   11.2140 	    7.0000 	   31.0000 	    9.6670 
    0.4959 	   11.2290 	    7.0000 	   31.0000 	    9.6970 
    0.3891 	   11.2470 	    7.0000 	   31.0000 	    9.7330 
    0.4196 	   11.2645 	    7.0000 	   31.0000 	    9.7680 
    0.5112 	   11.2790 	    7.0000 	   31.0000 	    9.7970 
    0.4654 	   11.2940 	    7.0000 	   31.0000 	    9.8270 
    0.4807 	   11.3105 	    7.0000 	   31.0000 	    9.8600 
    0.5570 	   11.3280 	    7.0000 	   31.0000 	    9.8950 
    0.5875 	   11.3450 	    7.0000 	   31.0000 	    9.9290 
    0.5112 	   11.3625 	    7.0000 	   31.0000 	    9.9640 
    0.6332 	   11.3810 	    7.0000 	   31.0000 	   10.0010 
    0.6332 	   11.3990 	    7.0000 	   31.0000 	   10.0370 
    0.4807 	   11.4175 	    7.0000 	   31.0000 	   10.0740 
    0.6332 	   11.4345 	    7.0000 	   31.0000 	   10.1080 
    0.5570 	   11.4540 	    7.0000 	   31.0000 	   10.1470 
    0.6027 	   11.4715 	    7.0000 	   31.0000 	   10.1820 
    0.4654 	   11.4880 	    7.0000 	   31.0000 	   10.2150 
    0.4807 	   11.5060 	    7.0000 	   31.0000 	   10.2510 
    0.5264 	   11.5240 	    7.0000 	   31.0000 	   10.2870 
    0.6943 	   11.5415 	    7.0000 	   31.0000 	   10.3220 
    0.6180 	   11.5600 	    7.0000 	   31.0000 	   10.3590 
    0.5417 	   11.5770 	    7.0000 	   31.0000 	   10.3930 
    0.6180 	   11.5945 	    7.0000 	   31.0000 	   10.4280 
    0.4654 	   11.6115 	    7.0000 	   31.0000 	   10.4620 
    0.4501 	   11.6285 	    7.0000 	   31.0000 	   10.4960 
    0.6180 	   11.6490 	    7.0000 	   31.0000 	   10.5370 
    0.5722 	   11.6650 	    7.0000 	   31.0000 	   10.5690 
    0.6332 	   11.6810 	    7.0000 	   31.0000 	   10.6011 
    0.5417 	   11.6960 	    7.0000 	   31.0000 	   10.6311 
    0.6027 	   11.7120 	    7.0000 	   31.0000 	   10.6631 
    0.5570 	   11.7280 	    7.0000 	   31.0000 	   10.6951 
    0.4501 	   11.7445 	    7.0000 	   31.0000 	   10.7281 
    0.6027 	   11.7615 	    7.0000 	   31.0000 	   10.7621 
    0.4654 	   11.7770 	    7.0000 	   31.0000 	   10.7931 
    0.6790 	   11.7920 	    7.0000 	   31.0000 	   10.8231 
    0.5264 	   11.8080 	    7.0000 	   31.0000 	   10.8551 
    0.5570 	   11.8265 	    7.0000 	   31.0000 	   10.8921 
    0.8011 	   11.8455 	    7.0000 	   31.0000 	   10.9301 
    0.4959 	   11.8635 	    7.0000 	   31.0000 	   10.9661 
    0.5570 	   11.8820 	    7.0000 	   31.0000 	   11.0031 
    0.4654 	   11.9000 	    7.0000 	   31.0000 	   11.0391 
    0.6943 	   11.9175 	    7.0000 	   31.0000 	   11.0741 
    0.4959 	   11.9350 	    7.0000 	   31.0000 	   11.1091 
    0.7248 	   11.9525 	    7.0000 	   31.0000 	   11.1441 
    0.5264 	   11.9685 	    7.0000 	   31.0000 	   11.1761 
    0.3281 	   11.9860 	    7.0000 	   31.0000 	   11.2111 
    0.6332 	   12.0035 	    7.0000 	   31.0000 	   11.2461 
    0.6638 	   12.0205 	    7.0000 	   31.0000 	   11.2801 
    0.5875 	   12.0405 	    7.0000 	   31.0000 	   11.3201 
    0.4044 	   12.0565 	    7.0000 	   31.0000 	   11.3521 
    0.3281 	   12.0720 	    7.0000 	   31.0000 	   11.3831 
    0.4959 	   12.0870 	    7.0000 	   31.0000 	   11.4131 
    0.5875 	   12.1025 	    7.0000 	   31.0000 	   11.4441 
    0.6180 	   12.1180 	    7.0000 	   31.0000 	   11.4751 
    0.6485 	   12.1335 	    7.0000 	   31.0000 	   11.5061 
    0.5264 	   12.1490 	    7.0000 	   31.0000 	   11.5371 
    0.6332 	   12.1640 	    7.0000 	   31.0000 	   11.5671 
    0.6027 	   12.1795 	    7.0000 	   31.0000 	   11.5981 
    0.6485 	   12.1945 	    7.0000 	   31.0000 	   11.6281 
    0.7401 	   12.2100 	    7.0000 	   31.0000 	   11.6591 
    0.2976 	   12.2255 	    7.0000 	   31.0000 	   11.6901 
    0.5417 	   12.2430 	    7.0000 	   31.0000 	   11.7251 
    0.4959 	   12.2580 	    7.0000 	   31.0000 	   11.7551 
    0.5570 	   12.2730 	    7.0000 	   31.0000 	   11.7851 
    0.4959 	   12.2875 	    7.0000 	   31.0000 	   11.8141 
    0.5722 	   12.3020 	    7.0000 	   31.0000 	   11.8431 
    0.5722 	   12.3170 	    7.0000 	   31.0000 	   11.8731 
    0.4959 	   12.3325 	    7.0000 	   31.0000 	   11.9041 
    0.6332 	   12.3500 	    7.0000 	   31.0000 	   11.9391 
    0.5264 	   12.3685 	    7.0000 	   31.0000 	   11.9761 
    0.4501 	   12.3845 	    7.0000 	   31.0000 	   12.0081 
    0.5417 	   12.4020 	    7.0000 	   31.0000 	   12.0431 
    0.5417 	   12.4185 	    7.0000 	   31.0000 	   12.0761 
    0.6180 	   12.4370 	    7.0000 	   31.0000 	   12.1131 
    0.5570 	   12.4525 	    7.0000 	   31.0000 	   12.1441 
    0.5112 	   12.4675 	    7.0000 	   31.0000 	   12.1741 
    0.5570 	   12.4835 	    7.0000 	   31.0000 	   12.2061 
    0.5570 	   12.4990 	    7.0000 	   31.0000 	   12.2371 
    0.4349 	   12.5140 	    7.0000 	   31.0000 	   12.2671 
    0.5264 	   12.5295 	    7.0000 	   31.0000 	   12.2981 
    0.5722 	   12.5470 	    7.0000 	   31.0000 	   12.3331 
    0.5112 	   12.5625 	    7.0000 	   31.0000 	   12.3642 
    0.6790 	   12.5780 	    7.0000 	   31.0000 	   12.3952 
    0.5264 	   12.5930 	    7.0000 	   31.0000 	   12.4252 
    0.5570 	   12.6085 	    7.0000 	   31.0000 	   12.4562 
    0.5875 	   12.6250 	    7.0000 	   31.0000 	   12.4892 
    0.6943 	   12.6435 	    7.0000 	   31.0000 	   12.5262 
    0.2213 	   12.6605 	    7.0000 	   31.0000 	   12.5602 
    0.5875 	   12.6760 	    7.0000 	   31.0000 	   12.5912 
    0.6027 	   12.6915 	    7.0000 	   31.0000 	   12.6222 
    0.5264 	   12.7085 	    7.0000 	   31.0000 	   12.6562 
    0.6180 	   12.7250 	    7.0000 	   31.0000 	   12.6892 
    0.5112 	   12.7410 	    7.0000 	   31.0000 	   12.7212 
    0.5875 	   12.7565 	    7.0000 	   31.0000 	   12.7522 
    0.6332 	   12.7715 	    7.0000 	   31.0000 	   12.7822 
    0.4349 	   12.7895 	    7.0000 	   31.0000 	   12.8182 
    0.4349 	   12.8060 	    7.0000 	   31.0000 	   12.8512 
    0.4044 	   12.8205 	    7.0000 	   31.0000 	   12.8802 
    0.6943 	   12.8350 	    7.0000 	   31.0000 	   12.9092 
    0.4959 	   12.8505 	    7.0000 	   31.0000 	   12.9402 
    0.6943 	   12.8675 	    7.0000 	   31.0000 	   12.9742 
    0.6180 	   12.8840 	    7.0000 	   31.0000 	   13.0072 
    0.6943 	   12.9015 	    7.0000 	   31.0000 	   13.0422 
    0.5112 	   12.9180 	    7.0000 	   31.0000 	   13.0752 
    0.5417 	   12.9350 	    7.0000 	   31.0000 	   13.1092 
    0.5417 	   12.9530 	    7.0000 	   31.0000 	   13.1452 
    0.4044 	   12.9700 	    7.0000 	   31.0000 	   13.1792 
    0.5417 	   12.9870 	    7.0000 	   31.0000 	   13.2132 
    0.5264 	   13.0040 	    7.0000 	   31.0000 	   13.2472 
    0.5722 	   13.0210 	    7.0000 	   31.0000 	   13.2812 
    0.6485 	   13.0400 	    7.0000 	   31.0000 	   13.3192 
    0.6943 	   13.0550 	    7.0000 	   31.0000 	   13.3492 
    0.5722 	   13.0710 	    7.0000 	   31.0000 	   13.3812 
    0.5264 	   13.0885 	    7.0000 	   31.0000 	   13.4162 
    0.4654 	   13.1060 	    7.0000 	   31.0000 	   13.4512 
    0.7706 	   13.1235 	    7.0000 	   31.0000 	   13.4862 
    0.6180 	   13.1405 	    7.0000 	   31.0000 	   13.5202 
    0.5417 	   13.1585 	    7.0000 	   31.0000 	   13.5562 
    0.6180 	   13.1755 	    7.0000 	   31.0000 	   13.5902 
    0.5112 	   13.1915 	    7.0000 	   31.0000 	   13.6222 
    0.5570 	   13.2070 	    7.0000 	   31.0000 	   13.6532 
    0.4807 	   13.2235 	    7.0000 	   31.0000 	   13.6862 
    0.6027 	   13.2385 	    7.0000 	   31.0000 	   13.7162 
    0.5417 	   13.2540 	    7.0000 	   31.0000 	   13.7472 
    0.5722 	   13.2690 	    7.0000 	   31.0000 	   13.7772 
    0.5417 	   13.2855 	    7.0000 	   31.0000 	   13.8102 
    0.5264 	   13.3000 	    7.0000 	   31.0000 	   13.8392 
    0.4959 	   13.3165 	    7.0000 	   31.0000 	   13.8722 
    0.5722 	   13.3340 	    7.0000 	   31.0000 	   13.9072 
    0.5875 	   13.3520 	    7.0000 	   31.0000 	   13.9432 
    0.5417 	   13.3705 	    7.0000 	   31.0000 	   13.9802 
    0.7553 	   13.3880 	    7.0000 	   31.0000 	   14.0152 
    0.6485 	   13.4065 	    7.0000 	   31.0000 	   14.0522 
    0.6180 	   13.4235 	    7.0000 	   31.0000 	   14.0863 
    0.5112 	   13.4410 	    7.0000 	   31.0000 	   14.1213 
    0.4959 	   13.4585 	    7.0000 	   31.0000 	   14.1563 
    0.5722 	   13.4765 	    7.0000 	   31.0000 	   14.1923 
    0.6027 	   13.4945 	    7.0000 	   31.0000 	   14.2283 
    0.5264 	   13.5120 	    7.0000 	   31.0000 	   14.2633 
    0.7553 	   13.5290 	    7.0000 	   31.0000 	   14.2973 
    0.4807 	   13.5490 	    7.0000 	   31.0000 	   14.3373 
    0.6485 	   13.5675 	    7.0000 	   31.0000 	   14.3743 
    0.5264 	   13.5850 	    7.0000 	   31.0000 	   14.4093 
    0.5417 	   13.6030 	    7.0000 	   31.0000 	   14.4453 
    0.6638 	   13.6205 	    7.0000 	   31.0000 	   14.4803 
    0.4807 	   13.6375 	    7.0000 	   31.0000 	   14.5143 
    0.6485 	   13.6560 	    7.0000 	   31.0000 	   14.5513 
    0.5875 	   13.6725 	    7.0000 	   31.0000 	   14.5843 
    0.4959 	   13.6880 	    7.0000 	   31.0000 	   14.6153 
    0.5722 	   13.7035 	    7.0000 	   31.0000 	   14.6463 
    0.6180 	   13.7195 	    7.0000 	   31.0000 	   14.6783 
    0.5875 	   13.7355 	    7.0000 	   31.0000 	   14.7103 
    0.6638 	   13.7515 	    7.0000 	   31.0000 	   14.7423 
    0.5264 	   13.7680 	    7.0000 	   31.0000 	   14.7753 
    0.5875 	   13.7845 	    7.0000 	   31.0000 	   14.8083 
    0.5875 	   13.7995 	    7.0000 	   31.0000 	   14.8383 
    0.5417 	   13.8170 	    7.0000 	   31.0000 	   14.8733 
    0.2670 	   13.8345 	    7.0000 	   31.0000 	   14.9083 
    0.5875 	   13.8525 	    7.0000 	   31.0000 	   14.9443 
    0.5875 	   13.8700 	    7.0000 	   31.0000 	   14.9793 
    0.5417 	   13.8880 	    7.0000 	   31.0000 	   15.0153 
    0.5570 	   13.9060 	    7.0000 	   31.0000 	   15.0513 
    0.5112 	   13.9235 	    7.0000 	   31.0000 	   15.0863 
    0.6332 	   13.9415 	    7.0000 	   31.0000 	   15.1223 
    0.6790 	   13.9595 	    7.0000 	   31.0000 	   15.1583 
    0.5417 	   13.9770 	    7.0000 	   31.0000 	   15.1933 
    0.6790 	   13.9950 	    7.0000 	   31.0000 	   15.2293 
    0.4959 	   14.0110 	    7.0000 	   31.0000 	   15.2613 
    0.4044 	   14.0265 	    7.0000 	   31.0000 	   15.2923 
    0.6485 	   14.0450 	    7.0000 	   31.0000 	   15.3293 
    0.5112 	   14.0630 	    7.0000 	   31.0000 	   15.3653 
    0.5570 	   14.0810 	    7.0000 	   31.0000 	   15.4013 
    0.5264 	   14.0985 	    7.0000 	   31.0000 	   15.4363 
    0.6332 	   14.1165 	    7.0000 	   31.0000 	   15.4723 
    0.6332 	   14.1345 	    7.0000 	   31.0000 	   15.5083 
    0.6638 	   14.1520 	    7.0000 	   31.0000 	   15.5433 
    0.6485 	   14.1690 	    7.0000 	   31.0000 	   15.5773 
    0.5264 	   14.1850 	    7.0000 	   31.0000 	   15.6093 
    0.5417 	   14.2010 	    7.0000 	   31.0000 	   15.6413 
    0.6638 	   14.2170 	    7.0000 	   31.0000 	   15.6733 
    0.6332 	   14.2335 	    7.0000 	   31.0000 	   15.7063 
    0.5722 	   14.2500 	    7.0000 	   31.0000 	   15.7393 
    0.6485 	   14.2670 	    7.0000 	   31.0000 	   15.7733 
    0.6638 	   14.2840 	    7.0000 	   31.0000 	   15.8073 
    0.5264 	   14.2995 	    7.0000 	   31.0000 	   15.8384 
    0.6332 	   14.3155 	    7.0000 	   31.0000 	   15.8704 
    0.6485 	   14.3350 	    7.0000 	   31.0000 	   15.9094 
    0.4959 	   14.3535 	    7.0000 	   31.0000 	   15.9464 
    0.6180 	   14.3710 	    7.0000 	   31.0000 	   15.9814 
    0.5722 	   14.3890 	    7.0000 	   31.0000 	   16.0174 
    0.5570 	   14.4060 	    7.0000 	   31.0000 	   16.0514 
    0.5722 	   14.4235 	    7.0000 	   31.0000 	   16.0864 
    0.4807 	   14.4415 	    7.0000 	   31.0000 	   16.1224 
    0.5722 	   14.4595 	    7.0000 	   31.0000 	   16.1584 
    0.5112 	   14.4775 	    7.0000 	   31.0000 	   16.1944 
    0.6485 	   14.4950 	    7.0000 	   31.0000 	   16.2294 
    0.4196 	   14.5120 	    7.0000 	   31.0000 	   16.2634 
    0.7401 	   14.5285 	    7.0000 	   31.0000 	   16.2964 
    0.5264 	   14.5465 	    7.0000 	   31.0000 	   16.3324 
    0.5875 	   14.5625 	    7.0000 	   31.0000 	   16.3644 
    0.5570 	   14.5785 	    7.0000 	   31.0000 	   16.3964 
    0.5417 	   14.5940 	    7.0000 	   31.0000 	   16.4274 
    0.4501 	   14.6110 	    7.0000 	   31.0000 	   16.4614 
    0.6485 	   14.6280 	    7.0000 	   31.0000 	   16.4954 
    0.6332 	   14.6460 	    7.0000 	   31.0000 	   16.5314 
    0.4959 	   14.6645 	    7.0000 	   31.0000 	   16.5684 
    0.6638 	   14.6805 	    7.0000 	   31.0000 	   16.6004 
    0.6638 	   14.6975 	    7.0000 	   31.0000 	   16.6344 
    0.3433 	   14.7140 	    7.0000 	   31.0000 	   16.6674 
    0.5112 	   14.7305 	    7.0000 	   31.0000 	   16.7004 
    0.7095 	   14.7465 	    7.0000 	   31.0000 	   16.7324 
    0.6485 	   14.7630 	    7.0000 	   31.0000 	   16.7654 
    0.5875 	   14.7785 	    7.0000 	   31.0000 	   16.7964 
    0.5570 	   14.7960 	    7.0000 	   31.0000 	   16.8314 
    0.6638 	   14.8115 	    7.0000 	   31.0000 	   16.8624 
    0.6027 	   14.8285 	    7.0000 	   31.0000 	   16.8964 
    0.5417 	   14.8455 	    7.0000 	   31.0000 	   16.9304 
    0.5570 	   14.8630 	    7.0000 	   31.0000 	   16.9654 
    0.5112 	   14.8815 	    7.0000 	   31.0000 	   17.0024 
    0.5875 	   14.8995 	    7.0000 	   31.0000 	   17.0384 
    0.6485 	   14.9165 	    7.0000 	   31.0000 	   17.0724 
    0.5875 	   14.9350 	    7.0000 	   31.0000 	   17.1084 
    0.4196 	   14.9535 	    7.0000 	   31.0000 	   17.1464 
    0.6180 	   14.9710 	    7.0000 	   31.0000 	   17.1814 
    0.3128 	   14.9880 	    7.0000 	   31.0000 	   17.2154 
    0.5264 	   15.0055 	    7.0000 	   31.0000 	   17.2504 
    0.6485 	   15.0230 	    7.0000 	   31.0000 	   17.2854 
    0.5570 	   15.0410 	    7.0000 	   31.0000 	   17.3214 
    0.5112 	   15.0585 	    7.0000 	   31.0000 	   17.3564 
    0.3738 	   15.0740 	    7.0000 	   31.0000 	   17.3874 
    0.5722 	   15.0905 	    7.0000 	   31.0000 	   17.4204 
    0.4807 	   15.1065 	    7.0000 	   31.0000 	   17.4524 
    0.5570 	   15.1230 	    7.0000 	   31.0000 	   17.4854 
    0.5875 	   15.1400 	    7.0000 	   31.0000 	   17.5194 
    0.6485 	   15.1585 	    7.0000 	   31.0000 	   17.5564 
    0.5875 	   15.1750 	    7.0000 	   31.0000 	   17.5895 
    0.6180 	   15.1915 	    7.0000 	   31.0000 	   17.6225 
    0.6485 	   15.2075 	    7.0000 	   31.0000 	   17.6545 
    0.6943 	   15.2245 	    7.0000 	   31.0000 	   17.6885 
    0.6332 	   15.2410 	    7.0000 	   31.0000 	   17.7215 
    0.4654 	   15.2575 	    7.0000 	   31.0000 	   17.7545 
    0.2365 	   15.2735 	    7.0000 	   31.0000 	   17.7865 
    0.5722 	   15.2890 	    7.0000 	   31.0000 	   17.8175 
    0.5264 	   15.3045 	    7.0000 	   31.0000 	   17.8485 
    0.5264 	   15.3200 	    7.0000 	   31.0000 	   17.8795 
    0.6790 	   15.3360 	    7.0000 	   31.0000 	   17.9115 
    0.4959 	   15.3530 	    7.0000 	   31.0000 	   17.9455 
    0.6790 	   15.3700 	    7.0000 	   31.0000 	   17.9795 
    0.4349 	   15.3865 	    7.0000 	   31.0000 	   18.0125 
    0.4196 	   15.4030 	    7.0000 	   31.0000 	   18.0455 
    0.7706 	   15.4200 	    7.0000 	   31.0000 	   18.0795 
    0.7858 	   15.4360 	    7.0000 	   31.0000 	   18.1115 
    0.6180 	   15.4520 	    7.0000 	   31.0000 	   18.1435 
    0.5417 	   15.4700 	    7.0000 	   31.0000 	   18.1795 
    0.6027 	   15.4875 	    7.0000 	   31.0000 	   18.2145 
    0.5417 	   15.5055 	    7.0000 	   31.0000 	   18.2505 
    0.6790 	   15.5240 	    7.0000 	   31.0000 	   18.2875 
    0.3738 	   15.5445 	    7.0000 	   31.0000 	   18.3285 
    0.7553 	   15.5625 	    7.0000 	   31.0000 	   18.3645 
    0.6332 	   15.5810 	    7.0000 	   31.0000 	   18.4015 
    0.4807 	   15.5985 	    7.0000 	   31.0000 	   18.4365 
    0.5722 	   15.6165 	    7.0000 	   31.0000 	   18.4725 
    0.4959 	   15.6330 	    7.0000 	   31.0000 	   18.5055 
    0.5417 	   15.6485 	    7.0000 	   31.0000 	   18.5365 
    0.4654 	   15.6655 	    7.0000 	   31.0000 	   18.5705 
    0.5570 	   15.6830 	    7.0000 	   31.0000 	   18.6055 
    0.5264 	   15.6990 	    7.0000 	   31.0000 	   18.6375 
    0.6332 	   15.7155 	    7.0000 	   31.0000 	   18.6705 
    0.5112 	   15.7325 	    7.0000 	   31.0000 	   18.7045 
    0.6943 	   15.7490 	    7.0000 	   31.0000 	   18.7375 
    0.6332 	   15.7650 	    7.0000 	   31.0000 	   18.7695 
    0.6638 	   15.7815 	    7.0000 	   31.0000 	   18.8025 
    0.6790 	   15.7975 	    7.0000 	   31.0000 	   18.8345 
    0.5570 	   15.8150 	    7.0000 	   31.0000 	   18.8695 
    0.6027 	   15.8340 	    7.0000 	   31.0000 	   18.9075 
    0.6180 	   15.8535 	    7.0000 	   31.0000 	   18.9465 
    0.3586 	   15.8715 	    7.0000 	   31.0000 	   18.9825 
    0.7553 	   15.8900 	    7.0000 	   31.0000 	   19.0195 
    0.5264 	   15.9085 	    7.0000 	   31.0000 	   19.0565 
    0.6027 	   15.9275 	    7.0000 	   31.0000 	   19.0945 
    0.5570 	   15.9465 	    7.0000 	   31.0000 	   19.1325 
    0.5112 	   15.9640 	    7.0000 	   31.0000 	   19.1675 
    0.6027 	   15.9830 	    7.0000 	   31.0000 	   19.2055 
    0.3128 	   16.0010 	    7.0000 	   31.0000 	   19.2415 
    0.4654 	   16.0195 	    7.0000 	   31.0000 	   19.2785 
    0.6180 	   16.0385 	    7.0000 	   31.0000 	   19.3165 
    0.4349 	   16.0570 	    7.0000 	   31.0000 	   19.3536 
    0.5570 	   16.0770 	    7.0000 	   31.0000 	   19.3936 
    0.6943 	   16.0955 	    7.0000 	   31.0000 	   19.4306 
    0.6332 	   16.1145 	    7.0000 	   31.0000 	   19.4686 
    0.6180 	   16.1330 	    7.0000 	   31.0000 	   19.5056 
    0.6485 	   16.1510 	    7.0000 	   31.0000 	   19.5416 
    0.5722 	   16.1695 	    7.0000 	   31.0000 	   19.5786 
    0.6027 	   16.1870 	    7.0000 	   31.0000 	   19.6136 
    0.5722 	   16.2035 	    7.0000 	   31.0000 	   19.6466 
    0.4959 	   16.2200 	    7.0000 	   31.0000 	   19.6796 
    0.6332 	   16.2375 	    7.0000 	   31.0000 	   19.7146 
    0.4501 	   16.2555 	    7.0000 	   31.0000 	   19.7506 
    0.5875 	   16.2725 	    7.0000 	   31.0000 	   19.7846 
    0.5570 	   16.2890 	    7.0000 	   31.0000 	   19.8176 
    0.4959 	   16.3060 	    7.0000 	   31.0000 	   19.8516 
    0.3586 	   16.3235 	    7.0000 	   31.0000 	   19.8866 
    0.5875 	   16.3410 	    7.0000 	   31.0000 	   19.9216 
    0.5875 	   16.3600 	    7.0000 	   31.0000 	   19.9596 
    0.5264 	   16.3780 	    7.0000 	   31.0000 	   19.9956 
    0.6638 	   16.3965 	    7.0000 	   31.0000 	   20.0326 
    0.6332 	   16.4140 	    7.0000 	   31.0000 	   20.0676 
    0.5417 	   16.4335 	    7.0000 	   31.0000 	   20.1066 
    0.4807 	   16.4510 	    7.0000 	   31.0000 	   20.1416 
    0.5722 	   16.4695 	    7.0000 	   31.0000 	   20.1786 
    0.6180 	   16.4890 	    7.0000 	   31.0000 	   20.2176 
    0.5112 	   16.5070 	    7.0000 	   31.0000 	   20.2536 
    0.3281 	   16.5260 	    7.0000 	   31.0000 	   20.2916 
    0.6027 	   16.5460 	    7.0000 	   31.0000 	   20.3316 
    0.5570 	   16.5640 	    7.0000 	   31.0000 	   20.3676 
    0.6180 	   16.5820 	    7.0000 	   31.0000 	   20.4036 
    0.6332 	   16.6005 	    7.0000 	   31.0000 	   20.4406 
    0.6943 	   16.6195 	    7.0000 	   31.0000 	   20.4786 
    0.5875 	   16.6380 	    7.0000 	   31.0000 	   20.5156 
    0.5264 	   16.6565 	    7.0000 	   31.0000 	   20.5526 
    0.4807 	   16.6750 	    7.0000 	   31.0000 	   20.5896 
    0.2823 	   16.6920 	    7.0000 	   31.0000 	   20.6236 
    0.6485 	   16.7085 	    7.0000 	   31.0000 	   20.6566 
    0.2213 	   16.7260 	    7.0000 	   31.0000 	   20.6916 
    0.7401 	   16.7425 	    7.0000 	   31.0000 	   20.7246 
    0.4959 	   16.7585 	    7.0000 	   31.0000 	   20.7566 
    0.5570 	   16.7755 	    7.0000 	   31.0000 	   20.7906 
    0.6485 	   16.7910 	    7.0000 	   31.0000 	   20.8216 
    0.6180 	   16.8070 	    7.0000 	   31.0000 	   20.8536 
    0.7095 	   16.8230 	    7.0000 	   31.0000 	   20.8856 
    0.6485 	   16.8395 	    7.0000 	   31.0000 	   20.9186 
    0.5570 	   16.8565 	    7.0000 	   31.0000 	   20.9526 
    0.5722 	   16.8730 	    7.0000 	   31.0000 	   20.9856 
    0.5112 	   16.8895 	    7.0000 	   31.0000 	   21.0186 
    0.6027 	   16.9065 	    7.0000 	   31.0000 	   21.0516 
    0.6332 	   16.9230 	    7.0000 	   31.0000 	   21.0847 
    0.2976 	   16.9405 	    7.0000 	   31.0000 	   21.1197 
    0.3128 	   16.9600 	    7.0000 	   31.0000 	   21.1587 
    0.4807 	   16.9780 	    7.0000 	   31.0000 	   21.1947 
    0.6485 	   16.9965 	    7.0000 	   31.0000 	   21.2317 
    0.5417 	   17.0150 	    7.0000 	   31.0000 	   21.2687 
    0.6180 	   17.0335 	    7.0000 	   31.0000 	   21.3057 
    0.6027 	   17.0530 	    7.0000 	   31.0000 	   21.3447 
    0.6332 	   17.0720 	    7.0000 	   31.0000 	   21.3827 
    0.6027 	   17.0900 	    7.0000 	   31.0000 	   21.4187 
    0.2670 	   17.1090 	    7.0000 	   31.0000 	   21.4567 
    0.6180 	   17.1275 	    7.0000 	   31.0000 	   21.4937 
    0.5722 	   17.1455 	    7.0000 	   31.0000 	   21.5297 
    0.7401 	   17.1645 	    7.0000 	   31.0000 	   21.5677 
    0.6943 	   17.1810 	    7.0000 	   31.0000 	   21.6007 
    0.7095 	   17.1980 	    7.0000 	   31.0000 	   21.6347 
    0.5875 	   17.2150 	    7.0000 	   31.0000 	   21.6687 
    0.6332 	   17.2320 	    7.0000 	   31.0000 	   21.7027 
    0.5264 	   17.2485 	    7.0000 	   31.0000 	   21.7357 
    0.4654 	   17.2650 	    7.0000 	   31.0000 	   21.7687 
    0.6332 	   17.2810 	    7.0000 	   31.0000 	   21.8007 
    0.6485 	   17.2970 	    7.0000 	   31.0000 	   21.8327 
    0.5112 	   17.3130 	    7.0000 	   31.0000 	   21.8647 
    0.5570 	   17.3300 	    7.0000 	   31.0000 	   21.8987 
    0.6485 	   17.3480 	    7.0000 	   31.0000 	   21.9347 
    0.7248 	   17.3655 	    7.0000 	   31.0000 	   21.9697 
    0.5112 	   17.3835 	    7.0000 	   31.0000 	   22.0057 
    0.6332 	   17.4015 	    7.0000 	   31.0000 	   22.0417 
    0.6180 	   17.4175 	    7.0000 	   31.0000 	   22.0737 
    0.6943 	   17.4345 	    7.0000 	   31.0000 	   22.1077 
    0.5264 	   17.4530 	    7.0000 	   31.0000 	   22.1447 
    0.7095 	   17.4705 	    7.0000 	   31.0000 	   22.1797 
    0.4959 	   17.4885 	    7.0000 	   31.0000 	   22.2157 
    0.6332 	   17.5075 	    7.0000 	   31.0000 	   22.2537 
    0.6027 	   17.5270 	    7.0000 	   31.0000 	   22.2927 
    0.6027 	   17.5465 	    7.0000 	   31.0000 	   22.3317 
    0.5570 	   17.5640 	    7.0000 	   31.0000 	   22.3667 
    0.6332 	   17.5805 	    7.0000 	   31.0000 	   22.3997 
    0.6485 	   17.5970 	    7.0000 	   31.0000 	   22.4327 
    0.7553 	   17.6140 	    7.0000 	   31.0000 	   22.4667 
    0.6790 	   17.6305 	    7.0000 	   31.0000 	   22.4997 
    0.4959 	   17.6470 	    7.0000 	   31.0000 	   22.5327 
    0.6943 	   17.6635 	    7.0000 	   31.0000 	   22.5657 
    0.5264 	   17.6805 	    7.0000 	   31.0000 	   22.5997 
    0.5264 	   17.6980 	    7.0000 	   31.0000 	   22.6347 
    0.6027 	   17.7160 	    7.0000 	   31.0000 	   22.6707 
    0.4349 	   17.7325 	    7.0000 	   31.0000 	   22.7037 
    0.5875 	   17.7485 	    7.0000 	   31.0000 	   22.7357 
    0.6180 	   17.7665 	    7.0000 	   31.0000 	   22.7717 
    0.6332 	   17.7825 	    7.0000 	   31.0000 	   22.8037 
    0.6485 	   17.7985 	    7.0000 	   31.0000 	   22.8358 
    0.4654 	   17.8145 	    7.0000 	   31.0000 	   22.8678 
    0.5875 	   17.8320 	    7.0000 	   31.0000 	   22.9028 
    0.6332 	   17.8505 	    7.0000 	   31.0000 	   22.9398 
    0.6943 	   17.8690 	    7.0000 	   31.0000 	   22.9768 
    0.5570 	   17.8880 	    7.0000 	   31.0000 	   23.0148 
    0.5875 	   17.9055 	    7.0000 	   31.0000 	   23.0498 
    0.6485 	   17.9230 	    7.0000 	   31.0000 	   23.0848 
    0.3586 	   17.9415 	    7.0000 	   31.0000 	   23.1218 
    0.3433 	   17.9610 	    7.0000 	   31.0000 	   23.1608 
    0.5570 	   17.9785 	    7.0000 	   31.0000 	   23.1958 
    0.5417 	   17.9985 	    7.0000 	   31.0000 	   23.2358 
    0.4807 	   18.0180 	    7.0000 	   31.0000 	   23.2748 
    0.5875 	   18.0375 	    7.0000 	   31.0000 	   23.3138 
    0.6638 	   18.0570 	    7.0000 	   31.0000 	   23.3528 
    0.6332 	   18.0760 	    7.0000 	   31.0000 	   23.3908 
    0.5417 	   18.0945 	    7.0000 	   31.0000 	   23.4278 
    0.6180 	   18.1130 	    7.0000 	   31.0000 	   23.4648 
    0.6027 	   18.1320 	    7.0000 	   31.0000 	   23.5028 
    0.6332 	   18.1510 	    7.0000 	   31.0000 	   23.5408 
    0.6485 	   18.1695 	    7.0000 	   31.0000 	   23.5778 
    0.5112 	   18.1865 	    7.0000 	   31.0000 	   23.6118 
    0.6790 	   18.2045 	    7.0000 	   31.0000 	   23.6478 
    0.6180 	   18.2225 	    7.0000 	   31.0000 	   23.6838 
    0.6638 	   18.2405 	    7.0000 	   31.0000 	   23.7198 
    0.5570 	   18.2580 	    7.0000 	   31.0000 	   23.7548 
    0.6332 	   18.2750 	    7.0000 	   31.0000 	   23.7888 
    0.5722 	   18.2910 	    7.0000 	   31.0000 	   23.8208 
    0.7706 	   18.3070 	    7.0000 	   31.0000 	   23.8528 
    0.5722 	   18.3235 	    7.0000 	   31.0000 	   23.8858 
    0.6027 	   18.3410 	    7.0000 	   31.0000 	   23.9208 
    0.5112 	   18.3575 	    7.0000 	   31.0000 	   23.9538 
    0.6332 	   18.3745 	    7.0000 	   31.0000 	   23.9878 
    0.4501 	   18.3915 	    7.0000 	   31.0000 	   24.0218 
    0.6943 	   18.4080 	    7.0000 	   31.0000 	   24.0548 
    0.7095 	   18.4265 	    7.0000 	   31.0000 	   24.0918 
    0.6027 	   18.4445 	    7.0000 	   31.0000 	   24.1278 
    0.4959 	   18.4630 	    7.0000 	   31.0000 	   24.1648 
    0.5875 	   18.4825 	    7.0000 	   31.0000 	   24.2038 
    0.5875 	   18.5015 	    7.0000 	   31.0000 	   24.2418 
    0.5417 	   18.5210 	    7.0000 	   31.0000 	   24.2808 
    0.5570 	   18.5405 	    7.0000 	   31.0000 	   24.3198 
    0.6180 	   18.5600 	    7.0000 	   31.0000 	   24.3588 
    0.5570 	   18.5790 	    7.0000 	   31.0000 	   24.3968 
    0.6638 	   18.5975 	    7.0000 	   31.0000 	   24.4338 
    0.5570 	   18.6160 	    7.0000 	   31.0000 	   24.4708 
    0.5875 	   18.6345 	    7.0000 	   31.0000 	   24.5078 
    0.7553 	   18.6535 	    7.0000 	   31.0000 	   24.5458 
    0.6180 	   18.6725 	    7.0000 	   31.0000 	   24.5839 
    0.5112 	   18.6900 	    7.0000 	   31.0000 	   24.6189 
    0.5112 	   18.7070 	    7.0000 	   31.0000 	   24.6529 
    0.5417 	   18.7245 	    7.0000 	   31.0000 	   24.6879 
    0.5875 	   18.7425 	    7.0000 	   31.0000 	   24.7239 
    0.5570 	   18.7590 	    7.0000 	   31.0000 	   24.7569 
    0.5112 	   18.7770 	    7.0000 	   31.0000 	   24.7929 
    0.5112 	   18.7925 	    7.0000 	   31.0000 	   24.8239 
    0.7401 	   18.8085 	    7.0000 	   31.0000 	   24.8559 
    0.5722 	   18.8255 	    7.0000 	   31.0000 	   24.8899 
    0.5875 	   18.8435 	    7.0000 	   31.0000 	   24.9259 
    0.5875 	   18.8615 	    7.0000 	   31.0000 	   24.9619 
    0.7095 	   18.8805 	    7.0000 	   31.0000 	   24.9999 
    0.6180 	   18.8990 	    7.0000 	   31.0000 	   25.0369 
    0.6332 	   18.9190 	    7.0000 	   31.0000 	   25.0769 
    0.4196 	   18.9385 	    7.0000 	   31.0000 	   25.1159 
    0.5112 	   18.9570 	    7.0000 	   31.0000 	   25.1529 
    0.6485 	   18.9765 	    7.0000 	   31.0000 	   25.1919 
    0.5722 	   18.9960 	    7.0000 	   31.0000 	   25.2309 
    0.6332 	   19.0150 	    7.0000 	   31.0000 	   25.2689 
    0.6638 	   19.0345 	    7.0000 	   31.0000 	   25.3079 
    0.6180 	   19.0550 	    7.0000 	   31.0000 	   25.3489 
    0.5875 	   19.0730 	    7.0000 	   31.0000 	   25.3849 
    0.6943 	   19.0915 	    7.0000 	   31.0000 	   25.4219 
    0.7858 	   19.1100 	    7.0000 	   31.0000 	   25.4589 
    0.5112 	   19.1290 	    7.0000 	   31.0000 	   25.4969 
    0.6485 	   19.1480 	    7.0000 	   31.0000 	   25.5349 
    0.7706 	   19.1670 	    7.0000 	   31.0000 	   25.5719 
    0.6180 	   19.1840 	    7.0000 	   31.0000 	   25.6069 
    0.6943 	   19.2015 	    7.0000 	   31.0000 	   25.6419 
    0.2823 	   19.2185 	    7.0000 	   31.0000 	   25.6759 
    0.7248 	   19.2360 	    7.0000 	   31.0000 	   25.7109 
    0.5570 	   19.2540 	    7.0000 	   31.0000 	   25.7469 
    0.6790 	   19.2715 	    7.0000 	   31.0000 	   25.7819 
    0.6485 	   19.2880 	    7.0000 	   31.0000 	   25.8149 
    0.6943 	   19.3050 	    7.0000 	   31.0000 	   25.8489 
    0.6790 	   19.3210 	    7.0000 	   31.0000 	   25.8809 
    0.5264 	   19.3385 	    7.0000 	   31.0000 	   25.9159 
    0.5570 	   19.3555 	    7.0000 	   31.0000 	   25.9499 
    0.6790 	   19.3725 	    7.0000 	   31.0000 	   25.9839 
    0.4501 	   19.3895 	    7.0000 	   31.0000 	   26.0179 
    0.4959 	   19.4075 	    7.0000 	   31.0000 	   26.0539 
    0.5722 	   19.4245 	    7.0000 	   31.0000 	   26.0879 
    0.5875 	   19.4415 	    7.0000 	   31.0000 	   26.1219 
    0.5570 	   19.4585 	    7.0000 	   31.0000 	   26.1559 
    0.6485 	   19.4750 	    7.0000 	   31.0000 	   26.1889 
    0.6790 	   19.4920 	    7.0000 	   31.0000 	   26.2229 
    0.5570 	   19.5085 	    7.0000 	   31.0000 	   26.2559 
    0.6790 	   19.5260 	    7.0000 	   31.0000 	   26.2909 
    0.6027 	   19.5465 	    7.0000 	   31.0000 	   26.3320 
    0.5417 	   19.5660 	    7.0000 	   31.0000 	   26.3710 
    0.7095 	   19.5855 	    7.0000 	   31.0000 	   26.4100 
    0.5722 	   19.6040 	    7.0000 	   31.0000 	   26.4470 
    0.6638 	   19.6230 	    7.0000 	   31.0000 	   26.4850 
    0.4654 	   19.6415 	    7.0000 	   31.0000 	   26.5220 
    0.6180 	   19.6605 	    7.0000 	   31.0000 	   26.5600 
    0.6180 	   19.6790 	    7.0000 	   31.0000 	   26.5970 
    0.6638 	   19.6965 	    7.0000 	   31.0000 	   26.6320 
    0.6943 	   19.7145 	    7.0000 	   31.0000 	   26.6680 
    0.7248 	   19.7325 	    7.0000 	   31.0000 	   26.7040 
    0.6332 	   19.7505 	    7.0000 	   31.0000 	   26.7400 
    0.6943 	   19.7675 	    7.0000 	   31.0000 	   26.7740 
    0.5264 	   19.7840 	    7.0000 	   31.0000 	   26.8070 
    0.6485 	   19.8000 	    7.0000 	   31.0000 	   26.8390 
    0.7248 	   19.8165 	    7.0000 	   31.0000 	   26.8720 
    0.6790 	   19.8335 	    7.0000 	   31.0000 	   26.9060 
    0.7401 	   19.8500 	    7.0000 	   31.0000 	   26.9390 
    0.7248 	   19.8680 	    7.0000 	   31.0000 	   26.9750 
    0.5417 	   19.8870 	    7.0000 	   31.0000 	   27.0130 
    0.6180 	   19.9050 	    7.0000 	   31.0000 	   27.0490 
    0.5417 	   19.9240 	    7.0000 	   31.0000 	   27.0870 
    0.5722 	   19.9425 	    7.0000 	   31.0000 	   27.1240 
    0.6027 	   19.9620 	    7.0000 	   31.0000 	   27.1630 
    0.5875 	   19.9805 	    7.0000 	   31.0000 	   27.2000 
    0.6332 	   19.9990 	    7.0000 	   31.0000 	   27.2370 
    0.5264 	   20.0190 	    7.0000 	   31.0000 	   27.2770 
    0.6180 	   20.0365 	    7.0000 	   31.0000 	   27.3120 
    0.5570 	   20.0570 	    7.0000 	   31.0000 	   27.3530 
    0.6027 	   20.0755 	    7.0000 	   31.0000 	   27.3900 
    0.7401 	   20.0940 	    7.0000 	   31.0000 	   27.4270 
    0.4501 	   20.1135 	    7.0000 	   31.0000 	   27.4660 
    0.8011 	   20.1320 	    7.0000 	   31.0000 	   27.5030 
    0.5875 	   20.1510 	    7.0000 	   31.0000 	   27.5410 
    0.2060 	   20.1700 	    7.0000 	   31.0000 	   27.5790 
    0.5875 	   20.1880 	    7.0000 	   31.0000 	   27.6150 
    0.6790 	   20.2055 	    7.0000 	   31.0000 	   27.6500 
    0.6027 	   20.2235 	    7.0000 	   31.0000 	   27.6860 
    0.4501 	   20.2410 	    7.0000 	   31.0000 	   27.7210 
    0.6180 	   20.2580 	    7.0000 	   31.0000 	   27.7550 
    0.6027 	   20.2755 	    7.0000 	   31.0000 	   27.7900 
    0.5875 	   20.2920 	    7.0000 	   31.0000 	   27.8230 
    0.6180 	   20.3095 	    7.0000 	   31.0000 	   27.8580 
    0.5112 	   20.3280 	    7.0000 	   31.0000 	   27.8950 
    0.5264 	   20.3470 	    7.0000 	   31.0000 	   27.9330 
    0.7401 	   20.3660 	    7.0000 	   31.0000 	   27.9710 
    0.6638 	   20.3860 	    7.0000 	   31.0000 	   28.0110 
    0.6180 	   20.4045 	    7.0000 	   31.0000 	   28.0480 
    0.5875 	   20.4240 	    7.0000 	   31.0000 	   28.0871 
    0.5570 	   20.4430 	    7.0000 	   31.0000 	   28.1251 
    0.6180 	   20.4625 	    7.0000 	   31.0000 	   28.1641 
    0.5875 	   20.4830 	    7.0000 	   31.0000 	   28.2051 
    0.3738 	   20.5015 	    7.0000 	   31.0000 	   28.2421 
    0.6485 	   20.5205 	    7.0000 	   31.0000 	   28.2801 
    0.4501 	   20.5415 	    7.0000 	   31.0000 	   28.3221 
    0.6485 	   20.5615 	    7.0000 	   31.0000 	   28.3621 
    0.6943 	   20.5815 	    7.0000 	   31.0000 	   28.4021 
    0.6180 	   20.6005 	    7.0000 	   31.0000 	   28.4401 
    0.6027 	   20.6195 	    7.0000 	   31.0000 	   28.4781 
    0.6027 	   20.6385 	    7.0000 	   31.0000 	   28.5161 
    0.5722 	   20.6575 	    7.0000 	   31.0000 	   28.5541 
    0.6180 	   20.6775 	    7.0000 	   31.0000 	   28.5941 
    0.6943 	   20.6945 	    7.0000 	   31.0000 	   28.6281 
    0.4807 	   20.7130 	    7.0000 	   31.0000 	   28.6651 
    0.6638 	   20.7310 	    7.0000 	   31.0000 	   28.7011 
    0.7553 	   20.7495 	    7.0000 	   31.0000 	   28.7381 
    0.5112 	   20.7675 	    7.0000 	   31.0000 	   28.7741 
    0.7706 	   20.7845 	    7.0000 	   31.0000 	   28.8081 
    0.6027 	   20.8015 	    7.0000 	   31.0000 	   28.8421 
    0.6332 	   20.8185 	    7.0000 	   31.0000 	   28.8761 
    0.4807 	   20.8365 	    7.0000 	   31.0000 	   28.9121 
    0.3738 	   20.8565 	    7.0000 	   31.0000 	   28.9521 
    0.6332 	   20.8770 	    7.0000 	   31.0000 	   28.9931 
    0.6180 	   20.8960 	    7.0000 	   31.0000 	   29.0311 
    0.5875 	   20.9140 	    7.0000 	   31.0000 	   29.0671 
    0.6485 	   20.9350 	    7.0000 	   31.0000 	   29.1091 
    0.7401 	   20.9530 	    7.0000 	   31.0000 	   29.1451 
    0.6790 	   20.9720 	    7.0000 	   31.0000 	   29.1831 
    0.5875 	   20.9915 	    7.0000 	   31.0000 	   29.2221 
    0.5112 	   21.0110 	    7.0000 	   31.0000 	   29.2611 
    0.5570 	   21.0300 	    7.0000 	   31.0000 	   29.2991 
    0.3586 	   21.0505 	    7.0000 	   31.0000 	   29.3401 
    0.7248 	   21.0715 	    7.0000 	   31.0000 	   29.3821 
    0.6180 	   21.0905 	    7.0000 	   31.0000 	   29.4201 
    0.6790 	   21.1105 	    7.0000 	   31.0000 	   29.4601 
    0.6332 	   21.1285 	    7.0000 	   31.0000 	   29.4961 
    0.5722 	   21.1485 	    7.0000 	   31.0000 	   29.5361 
    0.6027 	   21.1680 	    7.0000 	   31.0000 	   29.5751 
    0.7401 	   21.1865 	    7.0000 	   31.0000 	   29.6121 
    0.5112 	   21.2045 	    7.0000 	   31.0000 	   29.6481 
    0.6638 	   21.2215 	    7.0000 	   31.0000 	   29.6821 
    0.6332 	   21.2400 	    7.0000 	   31.0000 	   29.7191 
    0.5722 	   21.2585 	    7.0000 	   31.0000 	   29.7561 
    0.6332 	   21.2755 	    7.0000 	   31.0000 	   29.7901 
    0.5875 	   21.2925 	    7.0000 	   31.0000 	   29.8242 
    0.6180 	   21.3085 	    7.0000 	   31.0000 	   29.8562 
    0.6638 	   21.3250 	    7.0000 	   31.0000 	   29.8892 
    0.5264 	   21.3430 	    7.0000 	   31.0000 	   29.9252 
    0.7095 	   21.3625 	    7.0000 	   31.0000 	   29.9642 
    0.4196 	   21.3820 	    7.0000 	   31.0000 	   30.0032 
    0.4807 	   21.4025 	    7.0000 	   31.0000 	   30.0442 
    0.3738 	   21.4210 	    7.0000 	   31.0000 	   30.0812 
    0.5570 	   21.4405 	    7.0000 	   31.0000 	   30.1202 
    0.6027 	   21.4605 	    7.0000 	   31.0000 	   30.1602 
    0.5722 	   21.4810 	    7.0000 	   31.0000 	   30.2012 
    0.5722 	   21.5010 	    7.0000 	   31.0000 	   30.2412 
    0.5417 	   21.5210 	    7.0000 	   31.0000 	   30.2812 
    0.6943 	   21.5425 	    7.0000 	   31.0000 	   30.3242 
    0.5722 	   21.5610 	    7.0000 	   31.0000 	   30.3612 
    0.7553 	   21.5805 	    7.0000 	   31.0000 	   30.4002 
    0.5570 	   21.6000 	    7.0000 	   31.0000 	   30.4392 
    0.7401 	   21.6185 	    7.0000 	   31.0000 	   30.4762 
    0.6485 	   21.6385 	    7.0000 	   31.0000 	   30.5162 
    0.5570 	   21.6570 	    7.0000 	   31.0000 	   30.5532 
    0.5722 	   21.6760 	    7.0000 	   31.0000 	   30.5912 
    0.6485 	   21.6935 	    7.0000 	   31.0000 	   30.6262 
    0.4501 	   21.7115 	    7.0000 	   31.0000 	   30.6622 
    0.3128 	   21.7290 	    7.0000 	   31.0000 	   30.6972 
    0.6180 	   21.7470 	    7.0000 	   31.0000 	   30.7332 
    0.6943 	   21.7645 	    7.0000 	   31.0000 	   30.7682 
    0.6180 	   21.7830 	    7.0000 	   31.0000 	   30.8052 
    0.5875 	   21.7995 	    7.0000 	   31.0000 	   30.8382 
    0.3738 	   21.8165 	    7.0000 	   31.0000 	   30.8722 
    0.6332 	   21.8340 	    7.0000 	   31.0000 	   30.9072 
    0.6638 	   21.8535 	    7.0000 	   31.0000 	   30.9462 
    0.6027 	   21.8730 	    7.0000 	   31.0000 	   30.9852 
    0.6332 	   21.8930 	    7.0000 	   31.0000 	   31.0252 
    0.6485 	   21.9120 	    7.0000 	   31.0000 	   31.0632 
    0.6332 	   21.9310 	    7.0000 	   31.0000 	   31.1012 
    0.6638 	   21.9500 	    7.0000 	   31.0000 	   31.1382 
    0.5264 	   21.9695 	    7.0000 	   31.0000 	   31.1782 
    0.5264 	   21.9890 	    7.0000 	   31.0000 	   31.2172 
    0.6790 	   22.0085 	    7.0000 	   31.0000 	   31.2562 
    0.6332 	   22.0275 	    7.0000 	   31.0000 	   31.2942 
    0.4807 	   22.0485 	    7.0000 	   31.0000 	   31.3362 
    0.7095 	   22.0680 	    7.0000 	   31.0000 	   31.3752 
    0.7553 	   22.0885 	    7.0000 	   31.0000 	   31.4162 
    0.4044 	   22.1080 	    7.0000 	   31.0000 	   31.4552 
    0.6638 	   22.1280 	    7.0000 	   31.0000 	   31.4952 
    0.6027 	   22.1480 	    7.0000 	   31.0000 	   31.5352 
    0.6027 	   22.1680 	    7.0000 	   31.0000 	   31.5753 
    0.7401 	   22.1865 	    7.0000 	   31.0000 	   31.6123 
    0.6027 	   22.2045 	    7.0000 	   31.0000 	   31.6483 
    0.4349 	   22.2230 	    7.0000 	   31.0000 	   31.6853 
    0.6943 	   22.2415 	    7.0000 	   31.0000 	   31.7223 
    0.5570 	   22.2600 	    7.0000 	   31.0000 	   31.7593 
    0.6180 	   22.2785 	    7.0000 	   31.0000 	   31.7963 
    0.8469 	   22.2950 	    7.0000 	   31.0000 	   31.8293 
    0.5722 	   22.3120 	    7.0000 	   31.0000 	   31.8633 
    0.4807 	   22.3295 	    7.0000 	   31.0000 	   31.8983 
    0.6180 	   22.3475 	    7.0000 	   31.0000 	   31.9343 
    0.2823 	   22.3660 	    7.0000 	   31.0000 	   31.9713 
    0.6180 	   22.3840 	    7.0000 	   31.0000 	   32.0073 
    0.8316 	   22.4025 	    7.0000 	   31.0000 	   32.0443 
    0.5722 	   22.4225 	    7.0000 	   31.0000 	   32.0843 
    0.3738 	   22.4425 	    7.0000 	   31.0000 	   32.1243 
    0.7553 	   22.4625 	    7.0000 	   31.0000 	   32.1643 
    0.6027 	   22.4820 	    7.0000 	   31.0000 	   32.2033 
    0.3891 	   22.5015 	    7.0000 	   31.0000 	   32.2423 
    0.4959 	   22.5205 	    7.0000 	   31.0000 	   32.2803 
    0.7401 	   22.5410 	    7.0000 	   31.0000 	   32.3213 
    0.7553 	   22.5595 	    7.0000 	   31.0000 	   32.3583 
    0.4807 	   22.5780 	    7.0000 	   31.0000 	   32.3953 
    0.6332 	   22.5980 	    7.0000 	   31.0000 	   32.4353 
    0.6027 	   22.6185 	    7.0000 	   31.0000 	   32.4763 
    0.6485 	   22.6380 	    7.0000 	   31.0000 	   32.5153 
    0.5112 	   22.6575 	    7.0000 	   31.0000 	   32.5543 
    0.6180 	   22.6775 	    7.0000 	   31.0000 	   32.5943 
    0.5570 	   22.6950 	    7.0000 	   31.0000 	   32.6293 
    0.6790 	   22.7140 	    7.0000 	   31.0000 	   32.6673 
    0.5570 	   22.7340 	    7.0000 	   31.0000 	   32.7073 
    0.6332 	   22.7530 	    7.0000 	   31.0000 	   32.7453 
    0.6943 	   22.7715 	    7.0000 	   31.0000 	   32.7823 
    0.5570 	   22.7895 	    7.0000 	   31.0000 	   32.8183 
    0.6790 	   22.8065 	    7.0000 	   31.0000 	   32.8523 
    0.5875 	   22.8250 	    7.0000 	   31.0000 	   32.8893 
    0.5570 	   22.8430 	    7.0000 	   31.0000 	   32.9253 
    0.6332 	   22.8620 	    7.0000 	   31.0000 	   32.9633 
    0.7706 	   22.8815 	    7.0000 	   31.0000 	   33.0023 
    0.5112 	   22.9015 	    7.0000 	   31.0000 	   33.0423 
    0.5875 	   22.9215 	    7.0000 	   31.0000 	   33.0823 
    0.6638 	   22.9400 	    7.0000 	   31.0000 	   33.1193 
    0.6180 	   22.9605 	    7.0000 	   31.0000 	   33.1603 
    0.7401 	   22.9795 	    7.0000 	   31.0000 	   33.1983 
    0.6790 	   22.9990 	    7.0000 	   31.0000 	   33.2373 
    0.6180 	   23.0195 	    7.0000 	   31.0000 	   33.2783 
    0.4654 	   23.0400 	    7.0000 	   31.0000 	   33.3194 
    0.6790 	   23.0640 	    7.0000 	   31.0000 	   33.3674 
    0.6180 	   23.0840 	    7.0000 	   31.0000 	   33.4074 
    0.7706 	   23.1035 	    7.0000 	   31.0000 	   33.4464 
    0.8164 	   23.1230 	    7.0000 	   31.0000 	   33.4854 
    0.6027 	   23.1430 	    7.0000 	   31.0000 	   33.5254 
    0.5875 	   23.1625 	    7.0000 	   31.0000 	   33.5644 
    0.6332 	   23.1820 	    7.0000 	   31.0000 	   33.6034 
    0.7553 	   23.2005 	    7.0000 	   31.0000 	   33.6404 
    0.6180 	   23.2185 	    7.0000 	   31.0000 	   33.6764 
    0.6485 	   23.2375 	    7.0000 	   31.0000 	   33.7144 
    0.8164 	   23.2560 	    7.0000 	   31.0000 	   33.7514 
    0.6790 	   23.2745 	    7.0000 	   31.0000 	   33.7884 
    0.6485 	   23.2920 	    7.0000 	   31.0000 	   33.8234 
    0.6943 	   23.3090 	    7.0000 	   31.0000 	   33.8574 
    0.5417 	   23.3270 	    7.0000 	   31.0000 	   33.8934 
    0.6332 	   23.3460 	    7.0000 	   31.0000 	   33.9314 
    0.6027 	   23.3655 	    7.0000 	   31.0000 	   33.9704 
    0.8011 	   23.3865 	    7.0000 	   31.0000 	   34.0124 
    0.5722 	   23.4070 	    7.0000 	   31.0000 	   34.0534 
    0.6790 	   23.4260 	    7.0000 	   31.0000 	   34.0914 
    0.8774 	   23.4440 	    7.0000 	   31.0000 	   34.1274 
    0.1907 	   23.4620 	    7.0000 	   31.0000 	   34.1634 
    0.6943 	   23.4795 	    7.0000 	   31.0000 	   34.1984 
    0.7248 	   23.4975 	    7.0000 	   31.0000 	   34.2344 
    0.4959 	   23.5150 	    7.0000 	   31.0000 	   34.2694 
    0.5570 	   23.5335 	    7.0000 	   31.0000 	   34.3064 
    0.6180 	   23.5525 	    7.0000 	   31.0000 	   34.3444 
    0.6332 	   23.5715 	    7.0000 	   31.0000 	   34.3824 
    0.6638 	   23.5905 	    7.0000 	   31.0000 	   34.4204 
    0.5112 	   23.6110 	    7.0000 	   31.0000 	   34.4614 
    0.6027 	   23.6315 	    7.0000 	   31.0000 	   34.5024 
    0.6943 	   23.6520 	    7.0000 	   31.0000 	   34.5434 
    0.7858 	   23.6720 	    7.0000 	   31.0000 	   34.5834 
    0.6638 	   23.6900 	    7.0000 	   31.0000 	   34.6194 
    0.7858 	   23.7090 	    7.0000 	   31.0000 	   34.6574 
    0.5570 	   23.7280 	    7.0000 	   31.0000 	   34.6954 
    0.6332 	   23.7460 	    7.0000 	   31.0000 	   34.7314 
    0.5722 	   23.7635 	    7.0000 	   31.0000 	   34.7664 
    0.5722 	   23.7810 	    7.0000 	   31.0000 	   34.8014 
    0.5722 	   23.7980 	    7.0000 	   31.0000 	   34.8354 
    0.6027 	   23.8150 	    7.0000 	   31.0000 	   34.8694 
    0.5570 	   23.8325 	    7.0000 	   31.0000 	   34.9044 
    0.5722 	   23.8515 	    7.0000 	   31.0000 	   34.9424 
    0.8011 	   23.8700 	    7.0000 	   31.0000 	   34.9794 
    0.5875 	   23.8880 	    7.0000 	   31.0000 	   35.0154 
    0.2976 	   23.9055 	    7.0000 	   31.0000 	   35.0504 
    0.5264 	   23.9235 	    7.0000 	   31.0000 	   35.0865 
    0.5417 	   23.9415 	    7.0000 	   31.0000 	   35.1225 
    0.3586 	   23.9595 	    7.0000 	   31.0000 	   35.1585 
    0.2976 	   23.9775 	    7.0000 	   31.0000 	   35.1945 
    0.6638 	   23.9950 	    7.0000 	   31.0000 	   35.2295 
    0.7553 	   24.0130 	    7.0000 	   31.0000 	   35.2655 
    0.7095 	   24.0305 	    7.0000 	   31.0000 	   35.3005 
    0.7401 	   24.0505 	    7.0000 	   31.0000 	   35.3405 
    0.6332 	   24.0685 	    7.0000 	   31.0000 	   35.3765 
    0.5875 	   24.0860 	    7.0000 	   31.0000 	   35.4115 
    0.6485 	   24.1040 	    7.0000 	   31.0000 	   35.4475 
    0.6943 	   24.1215 	    7.0000 	   31.0000 	   35.4825 
    0.6485 	   24.1405 	    7.0000 	   31.0000 	   35.5205 
    0.7401 	   24.1600 	    7.0000 	   31.0000 	   35.5595 
    0.6485 	   24.1785 	    7.0000 	   31.0000 	   35.5965 
    0.5570 	   24.1965 	    7.0000 	   31.0000 	   35.6325 
    0.5264 	   24.2155 	    7.0000 	   31.0000 	   35.6695 
    0.5875 	   24.2335 	    7.0000 	   31.0000 	   35.7065 
    0.6638 	   24.2515 	    7.0000 	   31.0000 	   35.7425 
    0.6943 	   24.2695 	    7.0000 	   31.0000 	   35.7785 
    0.6332 	   24.2870 	    7.0000 	   31.0000 	   35.8135 
    0.4654 	   24.3045 	    7.0000 	   31.0000 	   35.8485 
    0.7706 	   24.3220 	    7.0000 	   31.0000 	   35.8835 
    0.6790 	   24.3400 	    7.0000 	   31.0000 	   35.9195 
    0.6027 	   24.3580 	    7.0000 	   31.0000 	   35.9555 
    0.6790 	   24.3775 	    7.0000 	   31.0000 	   35.9945 
    0.6332 	   24.3960 	    7.0000 	   31.0000 	   36.0315 
    0.4044 	   24.4160 	    7.0000 	   31.0000 	   36.0715 
    0.6790 	   24.4360 	    7.0000 	   31.0000 	   36.1115 
    0.7248 	   24.4560 	    7.0000 	   31.0000 	   36.1515 
    0.6180 	   24.4760 	    7.0000 	   31.0000 	   36.1915 
    0.6638 	   24.4970 	    7.0000 	   31.0000 	   36.2335 
    0.6332 	   24.5160 	    7.0000 	   31.0000 	   36.2715 
    0.6332 	   24.5365 	    7.0000 	   31.0000 	   36.3125 
    0.4044 	   24.5590 	    7.0000 	   31.0000 	   36.3575 
    0.6790 	   24.5785 	    7.0000 	   31.0000 	   36.3965 
    0.7095 	   24.5990 	    7.0000 	   31.0000 	   36.4375 
    0.6943 	   24.6200 	    7.0000 	   31.0000 	   36.4795 
    0.6180 	   24.6400 	    7.0000 	   31.0000 	   36.5195 
    0.6638 	   24.6610 	    7.0000 	   31.0000 	   36.5615 
    0.3281 	   24.6815 	    7.0000 	   31.0000 	   36.6025 
    0.6180 	   24.7000 	    7.0000 	   31.0000 	   36.6395 
    0.6180 	   24.7190 	    7.0000 	   31.0000 	   36.6775 
    0.6943 	   24.7380 	    7.0000 	   31.0000 	   36.7155 
    0.8621 	   24.7565 	    7.0000 	   31.0000 	   36.7525 
    0.6027 	   24.7745 	    7.0000 	   31.0000 	   36.7885 
    0.5722 	   24.7925 	    7.0000 	   31.0000 	   36.8246 
    0.5570 	   24.8100 	    7.0000 	   31.0000 	   36.8596 
    0.5570 	   24.8310 	    7.0000 	   31.0000 	   36.9006 
    0.7095 	   24.8510 	    7.0000 	   31.0000 	   36.9416 
    0.8927 	   24.8705 	    7.0000 	   31.0000 	   36.9806 
    0.5875 	   24.8910 	    7.0000 	   31.0000 	   37.0216 
    0.6332 	   24.9105 	    7.0000 	   31.0000 	   37.0606 
    0.7401 	   24.9300 	    7.0000 	   31.0000 	   37.0996 
    0.7248 	   24.9500 	    7.0000 	   31.0000 	   37.1396 
    0.5722 	   24.9695 	    7.0000 	   31.0000 	   37.1786 
    0.6332 	   24.9880 	    7.0000 	   31.0000 	   37.2156 
    0.6180 	   25.0065 	    7.0000 	   31.0000 	   37.2526 
    0.6485 	   25.0250 	    7.0000 	   31.0000 	   37.2896 
    0.6180 	   25.0465 	    7.0000 	   31.0000 	   37.3326 
    0.6638 	   25.0660 	    7.0000 	   31.0000 	   37.3716 
    0.5264 	   25.0860 	    7.0000 	   31.0000 	   37.4116 
    0.7248 	   25.1070 	    7.0000 	   31.0000 	   37.4536 
    0.5570 	   25.1270 	    7.0000 	   31.0000 	   37.4936 
    0.6027 	   25.1470 	    7.0000 	   31.0000 	   37.5336 
    0.7706 	   25.1665 	    7.0000 	   31.0000 	   37.5726 
    0.7401 	   25.1855 	    7.0000 	   31.0000 	   37.6106 
    0.7858 	   25.2035 	    7.0000 	   31.0000 	   37.6466 
    0.6180 	   25.2215 	    7.0000 	   31.0000 	   37.6826 
    0.6790 	   25.2395 	    7.0000 	   31.0000 	   37.7186 
    0.5722 	   25.2575 	    7.0000 	   31.0000 	   37.7546 
    0.6027 	   25.2760 	    7.0000 	   31.0000 	   37.7916 
    0.5264 	   25.2940 	    7.0000 	   31.0000 	   37.8276 
    0.4501 	   25.3120 	    7.0000 	   31.0000 	   37.8636 
    0.6027 	   25.3295 	    7.0000 	   31.0000 	   37.8986 
    0.5875 	   25.3475 	    7.0000 	   31.0000 	   37.9346 
    0.6332 	   25.3660 	    7.0000 	   31.0000 	   37.9716 
    0.4959 	   25.3840 	    7.0000 	   31.0000 	   38.0076 
    0.5722 	   25.4025 	    7.0000 	   31.0000 	   38.0446 
    0.5570 	   25.4220 	    7.0000 	   31.0000 	   38.0836 
    0.6332 	   25.4425 	    7.0000 	   31.0000 	   38.1246 
    0.6943 	   25.4630 	    7.0000 	   31.0000 	   38.1656 
    0.6332 	   25.4810 	    7.0000 	   31.0000 	   38.2016 
    0.6027 	   25.4990 	    7.0000 	   31.0000 	   38.2376 
    0.5264 	   25.5175 	    7.0000 	   31.0000 	   38.2746 
    0.6638 	   25.5355 	    7.0000 	   31.0000 	   38.3106 
    0.7095 	   25.5555 	    7.0000 	   31.0000 	   38.3506 
    0.5722 	   25.5735 	    7.0000 	   31.0000 	   38.3866 
    0.7553 	   25.5915 	    7.0000 	   31.0000 	   38.4226 
    0.7858 	   25.6100 	    7.0000 	   31.0000 	   38.4596 
    0.5722 	   25.6285 	    7.0000 	   31.0000 	   38.4966 
    0.7858 	   25.6470 	    7.0000 	   31.0000 	   38.5326 
    0.7401 	   25.6655 	    7.0000 	   31.0000 	   38.5696 
    0.5875 	   25.6835 	    7.0000 	   31.0000 	   38.6057 
    0.6943 	   25.7025 	    7.0000 	   31.0000 	   38.6437 
    0.6027 	   25.7210 	    7.0000 	   31.0000 	   38.6807 
    0.6790 	   25.7395 	    7.0000 	   31.0000 	   38.7177 
    0.7401 	   25.7585 	    7.0000 	   31.0000 	   38.7557 
    0.5570 	   25.7770 	    7.0000 	   31.0000 	   38.7927 
    0.6943 	   25.7950 	    7.0000 	   31.0000 	   38.8287 
    0.6027 	   25.8140 	    7.0000 	   31.0000 	   38.8667 
    0.6180 	   25.8320 	    7.0000 	   31.0000 	   38.9027 
    0.8164 	   25.8500 	    7.0000 	   31.0000 	   38.9387 
    0.6180 	   25.8680 	    7.0000 	   31.0000 	   38.9747 
    0.5722 	   25.8865 	    7.0000 	   31.0000 	   39.0117 
    0.8316 	   25.9045 	    7.0000 	   31.0000 	   39.0477 
    0.6027 	   25.9230 	    7.0000 	   31.0000 	   39.0847 
    0.7401 	   25.9415 	    7.0000 	   31.0000 	   39.1217 
    0.7401 	   25.9595 	    7.0000 	   31.0000 	   39.1577 
    0.6027 	   25.9805 	    7.0000 	   31.0000 	   39.1997 
    0.5112 	   25.9995 	    7.0000 	   31.0000 	   39.2377 
    0.6180 	   26.0175 	    7.0000 	   31.0000 	   39.2737 
    0.5875 	   26.0370 	    7.0000 	   31.0000 	   39.3127 
    0.6027 	   26.0575 	    7.0000 	   31.0000 	   39.3527 
    0.6180 	   26.0755 	    7.0000 	   31.0000 	   39.3897 
    0.6332 	   26.0960 	    7.0000 	   31.0000 	   39.4307 
    0.6027 	   26.1160 	    7.0000 	   31.0000 	   39.4707 
    0.6943 	   26.1360 	    7.0000 	   31.0000 	   39.5107 
    0.5875 	   26.1570 	    7.0000 	   31.0000 	   39.5527 
    0.6638 	   26.1785 	    7.0000 	   31.0000 	   39.5957 
    0.6790 	   26.1975 	    7.0000 	   31.0000 	   39.6337 
    0.6485 	   26.2165 	    7.0000 	   31.0000 	   39.6717 
    0.5722 	   26.2350 	    7.0000 	   31.0000 	   39.7087 
    0.5417 	   26.2545 	    7.0000 	   31.0000 	   39.7477 
    0.4044 	   26.2725 	    7.0000 	   31.0000 	   39.7837 
    0.8316 	   26.2910 	    7.0000 	   31.0000 	   39.8207 
    0.6485 	   26.3085 	    7.0000 	   31.0000 	   39.8557 
    0.6638 	   26.3260 	    7.0000 	   31.0000 	   39.8907 
    0.6027 	   26.3450 	    7.0000 	   31.0000 	   39.9287 
    0.6485 	   26.3630 	    7.0000 	   31.0000 	   39.9647 
    0.7401 	   26.3810 	    7.0000 	   31.0000 	   40.0007 
    0.6485 	   26.3995 	    7.0000 	   31.0000 	   40.0377 
    0.6027 	   26.4175 	    7.0000 	   31.0000 	   40.0737 
    0.3586 	   26.4365 	    7.0000 	   31.0000 	   40.1117 
    0.7248 	   26.4550 	    7.0000 	   31.0000 	   40.1487 
    0.5417 	   26.4735 	    7.0000 	   31.0000 	   40.1857 
    0.6180 	   26.4920 	    7.0000 	   31.0000 	   40.2227 
    0.6027 	   26.5105 	    7.0000 	   31.0000 	   40.2597 
    0.7095 	   26.5295 	    7.0000 	   31.0000 	   40.2977 
    0.6638 	   26.5495 	    7.0000 	   31.0000 	   40.3378 
    0.6180 	   26.5675 	    7.0000 	   31.0000 	   40.3738 
    0.6790 	   26.5865 	    7.0000 	   31.0000 	   40.4118 
    0.6027 	   26.6065 	    7.0000 	   31.0000 	   40.4518 
    0.5875 	   26.6260 	    7.0000 	   31.0000 	   40.4908 
    0.6790 	   26.6445 	    7.0000 	   31.0000 	   40.5278 
    0.7095 	   26.6630 	    7.0000 	   31.0000 	   40.5648 
    0.6790 	   26.6840 	    7.0000 	   31.0000 	   40.6068 
    0.7401 	   26.7020 	    7.0000 	   31.0000 	   40.6428 
    0.6790 	   26.7220 	    7.0000 	   31.0000 	   40.6828 
    0.7095 	   26.7405 	    7.0000 	   31.0000 	   40.7198 
    0.6638 	   26.7595 	    7.0000 	   31.0000 	   40.7578 
    0.5417 	   26.7790 	    7.0000 	   31.0000 	   40.7968 
    0.5722 	   26.7965 	    7.0000 	   31.0000 	   40.8318 
    0.6485 	   26.8140 	    7.0000 	   31.0000 	   40.8668 
    0.7095 	   26.8325 	    7.0000 	   31.0000 	   40.9038 
    0.5722 	   26.8505 	    7.0000 	   31.0000 	   40.9398 
    0.7401 	   26.8690 	    7.0000 	   31.0000 	   40.9768 
    0.5264 	   26.8875 	    7.0000 	   31.0000 	   41.0138 
    0.6638 	   26.9055 	    7.0000 	   31.0000 	   41.0498 
    0.5264 	   26.9235 	    7.0000 	   31.0000 	   41.0858 
    0.7858 	   26.9435 	    7.0000 	   31.0000 	   41.1258 
    0.5875 	   26.9640 	    7.0000 	   31.0000 	   41.1668 
    0.5570 	   26.9845 	    7.0000 	   31.0000 	   41.2078 
    0.6943 	   27.0055 	    7.0000 	   31.0000 	   41.2498 
    0.6027 	   27.0250 	    7.0000 	   31.0000 	   41.2888 
    0.6180 	   27.0480 	    7.0000 	   31.0000 	   41.3348 
    0.5417 	   27.0685 	    7.0000 	   31.0000 	   41.3758 
    0.6027 	   27.0890 	    7.0000 	   31.0000 	   41.4168 
    0.6943 	   27.1100 	    7.0000 	   31.0000 	   41.4588 
    0.7706 	   27.1320 	    7.0000 	   31.0000 	   41.5028 
    0.6790 	   27.1530 	    7.0000 	   31.0000 	   41.5448 
    0.6485 	   27.1725 	    7.0000 	   31.0000 	   41.5838 
    0.6027 	   27.1915 	    7.0000 	   31.0000 	   41.6218 
    0.6638 	   27.2120 	    7.0000 	   31.0000 	   41.6628 
    0.6790 	   27.2315 	    7.0000 	   31.0000 	   41.7018 
    0.5570 	   27.2510 	    7.0000 	   31.0000 	   41.7408 
    0.7401 	   27.2705 	    7.0000 	   31.0000 	   41.7798 
    0.6638 	   27.2900 	    7.0000 	   31.0000 	   41.8188 
    0.6027 	   27.3075 	    7.0000 	   31.0000 	   41.8538 
    0.6790 	   27.3255 	    7.0000 	   31.0000 	   41.8898 
    0.6332 	   27.3440 	    7.0000 	   31.0000 	   41.9268 
    0.4959 	   27.3645 	    7.0000 	   31.0000 	   41.9678 
    0.4654 	   27.3845 	    7.0000 	   31.0000 	   42.0078 
    0.8011 	   27.4055 	    7.0000 	   31.0000 	   42.0499 
    0.6790 	   27.4255 	    7.0000 	   31.0000 	   42.0899 
    0.5875 	   27.4460 	    7.0000 	   31.0000 	   42.1309 
    0.5722 	   27.4670 	    7.0000 	   31.0000 	   42.1729 
    0.5570 	   27.4880 	    7.0000 	   31.0000 	   42.2149 
    0.6027 	   27.5090 	    7.0000 	   31.0000 	   42.2569 
    0.5570 	   27.5290 	    7.0000 	   31.0000 	   42.2969 
    0.6180 	   27.5510 	    7.0000 	   31.0000 	   42.3409 
    0.6943 	   27.5730 	    7.0000 	   31.0000 	   42.3849 
    0.7401 	   27.5930 	    7.0000 	   31.0000 	   42.4249 
    0.6180 	   27.6140 	    7.0000 	   31.0000 	   42.4669 
    0.6790 	   27.6345 	    7.0000 	   31.0000 	   42.5079 
    0.5722 	   27.6555 	    7.0000 	   31.0000 	   42.5499 
    0.6638 	   27.6770 	    7.0000 	   31.0000 	   42.5929 
    0.6790 	   27.6970 	    7.0000 	   31.0000 	   42.6329 
    0.5875 	   27.7165 	    7.0000 	   31.0000 	   42.6719 
    0.6790 	   27.7350 	    7.0000 	   31.0000 	   42.7089 
    0.4044 	   27.7555 	    7.0000 	   31.0000 	   42.7499 
    0.6180 	   27.7750 	    7.0000 	   31.0000 	   42.7889 
    0.7858 	   27.7935 	    7.0000 	   31.0000 	   42.8259 
    0.5722 	   27.8115 	    7.0000 	   31.0000 	   42.8619 
    0.6485 	   27.8300 	    7.0000 	   31.0000 	   42.8989 
    0.5875 	   27.8480 	    7.0000 	   31.0000 	   42.9349 
    0.7095 	   27.8670 	    7.0000 	   31.0000 	   42.9729 
    0.6485 	   27.8855 	    7.0000 	   31.0000 	   43.0099 
    0.6638 	   27.9040 	    7.0000 	   31.0000 	   43.0469 
    0.4501 	   27.9225 	    7.0000 	   31.0000 	   43.0839 
    0.6332 	   27.9410 	    7.0000 	   31.0000 	   43.1209 
    0.5417 	   27.9610 	    7.0000 	   31.0000 	   43.1609 
    0.3586 	   27.9810 	    7.0000 	   31.0000 	   43.2009 
    0.5264 	   28.0015 	    7.0000 	   31.0000 	   43.2419 
    0.5417 	   28.0225 	    7.0000 	   31.0000 	   43.2839 
    0.5722 	   28.0455 	    7.0000 	   31.0000 	   43.3299 
    0.7095 	   28.0660 	    7.0000 	   31.0000 	   43.3709 
    0.8164 	   28.0870 	    7.0000 	   31.0000 	   43.4129 
    0.4349 	   28.1080 	    7.0000 	   31.0000 	   43.4549 
    0.9079 	   28.1285 	    7.0000 	   31.0000 	   43.4959 
    0.6790 	   28.1495 	    7.0000 	   31.0000 	   43.5379 
    0.6485 	   28.1715 	    7.0000 	   31.0000 	   43.5819 
    0.6332 	   28.1910 	    7.0000 	   31.0000 	   43.6209 
    0.8469 	   28.2095 	    7.0000 	   31.0000 	   43.6579 
    0.6790 	   28.2275 	    7.0000 	   31.0000 	   43.6939 
    0.6027 	   28.2460 	    7.0000 	   31.0000 	   43.7309 
    0.7706 	   28.2645 	    7.0000 	   31.0000 	   43.7679 
    0.6485 	   28.2840 	    7.0000 	   31.0000 	   43.8069 
    0.6790 	   28.3020 	    7.0000 	   31.0000 	   43.8430 
    0.6180 	   28.3195 	    7.0000 	   31.0000 	   43.8780 
    0.8164 	   28.3375 	    7.0000 	   31.0000 	   43.9140 
    0.7553 	   28.3560 	    7.0000 	   31.0000 	   43.9510 
    0.7248 	   28.3740 	    7.0000 	   31.0000 	   43.9870 
    0.8469 	   28.3920 	    7.0000 	   31.0000 	   44.0230 
    0.6332 	   28.4100 	    7.0000 	   31.0000 	   44.0590 
    0.6790 	   28.4295 	    7.0000 	   31.0000 	   44.0980 
    0.6485 	   28.4490 	    7.0000 	   31.0000 	   44.1370 
    0.6027 	   28.4705 	    7.0000 	   31.0000 	   44.1800 
    0.5112 	   28.4900 	    7.0000 	   31.0000 	   44.2190 
    0.6638 	   28.5105 	    7.0000 	   31.0000 	   44.2600 
    0.5722 	   28.5315 	    7.0000 	   31.0000 	   44.3020 
    0.5875 	   28.5530 	    7.0000 	   31.0000 	   44.3450 
    0.6638 	   28.5735 	    7.0000 	   31.0000 	   44.3860 
    0.6485 	   28.5940 	    7.0000 	   31.0000 	   44.4270 
    0.5570 	   28.6140 	    7.0000 	   31.0000 	   44.4670 
    0.6485 	   28.6345 	    7.0000 	   31.0000 	   44.5080 
    0.8164 	   28.6555 	    7.0000 	   31.0000 	   44.5500 
    0.7706 	   28.6765 	    7.0000 	   31.0000 	   44.5920 
    0.5875 	   28.6960 	    7.0000 	   31.0000 	   44.6310 
    0.4349 	   28.7145 	    7.0000 	   31.0000 	   44.6680 
    0.8164 	   28.7335 	    7.0000 	   31.0000 	   44.7060 
    0.6485 	   28.7535 	    7.0000 	   31.0000 	   44.7460 
    0.6027 	   28.7725 	    7.0000 	   31.0000 	   44.7840 
    0.7858 	   28.7920 	    7.0000 	   31.0000 	   44.8230 
    0.7858 	   28.8095 	    7.0000 	   31.0000 	   44.8580 
    0.6790 	   28.8270 	    7.0000 	   31.0000 	   44.8930 
    0.6790 	   28.8450 	    7.0000 	   31.0000 	   44.9290 
    0.6485 	   28.8635 	    7.0000 	   31.0000 	   44.9660 
    0.6790 	   28.8820 	    7.0000 	   31.0000 	   45.0030 
    0.8011 	   28.9015 	    7.0000 	   31.0000 	   45.0420 
    0.7248 	   28.9220 	    7.0000 	   31.0000 	   45.0830 
    0.5722 	   28.9405 	    7.0000 	   31.0000 	   45.1200 
    0.5264 	   28.9615 	    7.0000 	   31.0000 	   45.1620 
    0.5264 	   28.9820 	    7.0000 	   31.0000 	   45.2030 
    0.6485 	   29.0035 	    7.0000 	   31.0000 	   45.2460 
    0.6027 	   29.0240 	    7.0000 	   31.0000 	   45.2870 
    0.6485 	   29.0455 	    7.0000 	   31.0000 	   45.3300 
    0.8011 	   29.0655 	    7.0000 	   31.0000 	   45.3700 
    0.6485 	   29.0860 	    7.0000 	   31.0000 	   45.4110 
    0.5722 	   29.1070 	    7.0000 	   31.0000 	   45.4530 
    0.6943 	   29.1280 	    7.0000 	   31.0000 	   45.4950 
    0.6790 	   29.1490 	    7.0000 	   31.0000 	   45.5370 
    0.7553 	   29.1695 	    7.0000 	   31.0000 	   45.5781 
    0.4654 	   29.1905 	    7.0000 	   31.0000 	   45.6201 
    0.6180 	   29.2115 	    7.0000 	   31.0000 	   45.6621 
    0.8164 	   29.2320 	    7.0000 	   31.0000 	   45.7031 
    0.7401 	   29.2500 	    7.0000 	   31.0000 	   45.7391 
    0.5417 	   29.2705 	    7.0000 	   31.0000 	   45.7801 
    0.5875 	   29.2895 	    7.0000 	   31.0000 	   45.8181 
    0.5112 	   29.3070 	    7.0000 	   31.0000 	   45.8531 
    0.6027 	   29.3250 	    7.0000 	   31.0000 	   45.8891 
    0.6790 	   29.3430 	    7.0000 	   31.0000 	   45.9251 
    0.7248 	   29.3615 	    7.0000 	   31.0000 	   45.9621 
    0.5722 	   29.3805 	    7.0000 	   31.0000 	   46.0001 
    0.6180 	   29.3990 	    7.0000 	   31.0000 	   46.0371 
    0.6027 	   29.4170 	    7.0000 	   31.0000 	   46.0731 
    0.7401 	   29.4355 	    7.0000 	   31.0000 	   46.1101 
    0.4196 	   29.4560 	    7.0000 	   31.0000 	   46.1511 
    0.6943 	   29.4765 	    7.0000 	   31.0000 	   46.1921 
    0.6790 	   29.4960 	    7.0000 	   31.0000 	   46.2311 
    0.7248 	   29.5145 	    7.0000 	   31.0000 	   46.2681 
    0.5417 	   29.5330 	    7.0000 	   31.0000 	   46.3051 
    0.6180 	   29.5515 	    7.0000 	   31.0000 	   46.3421 
    0.6638 	   29.5700 	    7.0000 	   31.0000 	   46.3791 
    0.6943 	   29.5890 	    7.0000 	   31.0000 	   46.4171 
    0.6180 	   29.6075 	    7.0000 	   31.0000 	   46.4541 
    0.6943 	   29.6260 	    7.0000 	   31.0000 	   46.4911 
    0.6027 	   29.6445 	    7.0000 	   31.0000 	   46.5281 
    0.8011 	   29.6650 	    7.0000 	   31.0000 	   46.5691 
    0.7706 	   29.6860 	    7.0000 	   31.0000 	   46.6111 
    0.7401 	   29.7055 	    7.0000 	   31.0000 	   46.6501 
    0.7248 	   29.7260 	    7.0000 	   31.0000 	   46.6911 
    0.6332 	   29.7470 	    7.0000 	   31.0000 	   46.7331 
    0.6485 	   29.7655 	    7.0000 	   31.0000 	   46.7701 
    0.5264 	   29.7860 	    7.0000 	   31.0000 	   46.8111 
    0.6180 	   29.8045 	    7.0000 	   31.0000 	   46.8481 
    0.7553 	   29.8230 	    7.0000 	   31.0000 	   46.8851 
    0.6332 	   29.8415 	    7.0000 	   31.0000 	   46.9221 
    0.5570 	   29.8605 	    7.0000 	   31.0000 	   46.9601 
    0.6332 	   29.8800 	    7.0000 	   31.0000 	   46.9991 
    0.6027 	   29.8990 	    7.0000 	   31.0000 	   47.0371 
    0.8469 	   29.9180 	    7.0000 	   31.0000 	   47.0751 
    0.6943 	   29.9370 	    7.0000 	   31.0000 	   47.1131 
    0.6332 	   29.9555 	    7.0000 	   31.0000 	   47.1501 
    0.6790 	   29.9765 	    7.0000 	   31.0000 	   47.1921 
    0.7401 	   29.9970 	    7.0000 	   31.0000 	   47.2331 
    0.4807 	   30.0175 	    7.0000 	   31.0000 	   47.2741 
    0.6027 	   30.0385 	    7.0000 	   31.0000 	   47.3162 
    0.7858 	   30.0590 	    7.0000 	   31.0000 	   47.3572 
    0.5875 	   30.0795 	    7.0000 	   31.0000 	   47.3982 
    0.6027 	   30.0980 	    7.0000 	   31.0000 	   47.4352 
    0.3738 	   30.1165 	    7.0000 	   31.0000 	   47.4722 
    0.7095 	   30.1355 	    7.0000 	   31.0000 	   47.5102 
    0.6332 	   30.1540 	    7.0000 	   31.0000 	   47.5472 
    0.5722 	   30.1730 	    7.0000 	   31.0000 	   47.5852 
    0.6332 	   30.1910 	    7.0000 	   31.0000 	   47.6212 
    0.5112 	   30.2110 	    7.0000 	   31.0000 	   47.6612 
    0.8774 	   30.2305 	    7.0000 	   31.0000 	   47.7002 
    0.7095 	   30.2495 	    7.0000 	   31.0000 	   47.7382 
    0.6027 	   30.2700 	    7.0000 	   31.0000 	   47.7792 
    0.8469 	   30.2895 	    7.0000 	   31.0000 	   47.8182 
    0.5875 	   30.3070 	    7.0000 	   31.0000 	   47.8532 
    0.8621 	   30.3255 	    7.0000 	   31.0000 	   47.8902 
    0.7401 	   30.3440 	    7.0000 	   31.0000 	   47.9272 
    0.5875 	   30.3625 	    7.0000 	   31.0000 	   47.9642 
    0.7095 	   30.3815 	    7.0000 	   31.0000 	   48.0022 
    0.7706 	   30.4000 	    7.0000 	   31.0000 	   48.0392 
    0.8621 	   30.4185 	    7.0000 	   31.0000 	   48.0762 
    0.5875 	   30.4370 	    7.0000 	   31.0000 	   48.1132 
    0.7401 	   30.4560 	    7.0000 	   31.0000 	   48.1512 
    0.5875 	   30.4750 	    7.0000 	   31.0000 	   48.1892 
    0.7095 	   30.4935 	    7.0000 	   31.0000 	   48.2262 
    0.6790 	   30.5140 	    7.0000 	   31.0000 	   48.2672 
    0.5264 	   30.5345 	    7.0000 	   31.0000 	   48.3082 
    0.5875 	   30.5550 	    7.0000 	   31.0000 	   48.3492 
    0.6790 	   30.5745 	    7.0000 	   31.0000 	   48.3882 
    0.6638 	   30.5975 	    7.0000 	   31.0000 	   48.4342 
    0.8469 	   30.6170 	    7.0000 	   31.0000 	   48.4732 
    0.5112 	   30.6360 	    7.0000 	   31.0000 	   48.5112 
    0.6332 	   30.6550 	    7.0000 	   31.0000 	   48.5492 
    0.3433 	   30.6740 	    7.0000 	   31.0000 	   48.5872 
    0.7401 	   30.6920 	    7.0000 	   31.0000 	   48.6232 
    0.6638 	   30.7120 	    7.0000 	   31.0000 	   48.6632 
    0.8164 	   30.7315 	    7.0000 	   31.0000 	   48.7022 
    0.7553 	   30.7510 	    7.0000 	   31.0000 	   48.7412 
    0.6943 	   30.7700 	    7.0000 	   31.0000 	   48.7792 
    0.6943 	   30.7900 	    7.0000 	   31.0000 	   48.8192 
    0.6790 	   30.8080 	    7.0000 	   31.0000 	   48.8552 
    0.6943 	   30.8265 	    7.0000 	   31.0000 	   48.8922 
    0.6790 	   30.8465 	    7.0000 	   31.0000 	   48.9322 
    0.8316 	   30.8660 	    7.0000 	   31.0000 	   48.9712 
    0.7706 	   30.8865 	    7.0000 	   31.0000 	   49.0122 
    0.7401 	   30.9080 	    7.0000 	   31.0000 	   49.0553 
    0.6790 	   30.9280 	    7.0000 	   31.0000 	   49.0953 
    0.8011 	   30.9465 	    7.0000 	   31.0000 	   49.1323 
    0.5570 	   30.9655 	    7.0000 	   31.0000 	   49.1703 
    0.7248 	   30.9845 	    7.0000 	   31.0000 	   49.2083 
    0.4196 	   31.0035 	    7.0000 	   31.0000 	   49.2463 
    0.7248 	   31.0220 	    7.0000 	   31.0000 	   49.2833 
    0.7248 	   31.0420 	    7.0000 	   31.0000 	   49.3233 
    0.4501 	   31.0610 	    7.0000 	   31.0000 	   49.3613 
    0.6790 	   31.0795 	    7.0000 	   31.0000 	   49.3983 
    0.6027 	   31.1030 	    7.0000 	   31.0000 	   49.4453 
    0.7553 	   31.1220 	    7.0000 	   31.0000 	   49.4833 
    0.6485 	   31.1410 	    7.0000 	   31.0000 	   49.5213 
    0.6485 	   31.1595 	    7.0000 	   31.0000 	   49.5583 
    0.6943 	   31.1785 	    7.0000 	   31.0000 	   49.5963 
    0.7553 	   31.1970 	    7.0000 	   31.0000 	   49.6333 
    0.7095 	   31.2160 	    7.0000 	   31.0000 	   49.6713 
    0.7095 	   31.2360 	    7.0000 	   31.0000 	   49.7113 
    0.6332 	   31.2555 	    7.0000 	   31.0000 	   49.7503 
    0.6485 	   31.2755 	    7.0000 	   31.0000 	   49.7903 
    0.4196 	   31.2945 	    7.0000 	   31.0000 	   49.8283 
    0.6332 	   31.3125 	    7.0000 	   31.0000 	   49.8643 
    0.6790 	   31.3315 	    7.0000 	   31.0000 	   49.9023 
    0.5875 	   31.3500 	    7.0000 	   31.0000 	   49.9393 
    0.8469 	   31.3690 	    7.0000 	   31.0000 	   49.9773 
    0.7248 	   31.3870 	    7.0000 	   31.0000 	   50.0133 
    0.7858 	   31.4065 	    7.0000 	   31.0000 	   50.0523 
    0.6638 	   31.4250 	    7.0000 	   31.0000 	   50.0893 
    0.4044 	   31.4440 	    7.0000 	   31.0000 	   50.1273 
    0.6943 	   31.4630 	    7.0000 	   31.0000 	   50.1653 
    0.7095 	   31.4825 	    7.0000 	   31.0000 	   50.2043 
    0.3738 	   31.5010 	    7.0000 	   31.0000 	   50.2413 
    0.6638 	   31.5215 	    7.0000 	   31.0000 	   50.2823 
    0.7401 	   31.5425 	    7.0000 	   31.0000 	   50.3243 
    0.7706 	   31.5635 	    7.0000 	   31.0000 	   50.3663 
    0.7553 	   31.5845 	    7.0000 	   31.0000 	   50.4073 
    0.7706 	   31.6045 	    7.0000 	   31.0000 	   50.4483 
    0.6485 	   31.6245 	    7.0000 	   31.0000 	   50.4883 
    0.6943 	   31.6435 	    7.0000 	   31.0000 	   50.5263 
    0.5570 	   31.6630 	    7.0000 	   31.0000 	   50.5653 
    0.7095 	   31.6830 	    7.0000 	   31.0000 	   50.6053 
    0.6943 	   31.7045 	    7.0000 	   31.0000 	   50.6483 
    0.7858 	   31.7240 	    7.0000 	   31.0000 	   50.6873 
    0.6485 	   31.7445 	    7.0000 	   31.0000 	   50.7283 
    0.6790 	   31.7645 	    7.0000 	   31.0000 	   50.7683 
    0.6943 	   31.7850 	    7.0000 	   31.0000 	   50.8093 
    0.6790 	   31.8035 	    7.0000 	   31.0000 	   50.8464 
    0.6332 	   31.8220 	    7.0000 	   31.0000 	   50.8834 
    0.7248 	   31.8405 	    7.0000 	   31.0000 	   50.9204 
    0.6790 	   31.8610 	    7.0000 	   31.0000 	   50.9614 
    0.6790 	   31.8815 	    7.0000 	   31.0000 	   51.0024 
    0.8164 	   31.9035 	    7.0000 	   31.0000 	   51.0464 
    0.6638 	   31.9240 	    7.0000 	   31.0000 	   51.0874 
    0.7858 	   31.9450 	    7.0000 	   31.0000 	   51.1294 
    0.6638 	   31.9655 	    7.0000 	   31.0000 	   51.1704 
    0.6790 	   31.9865 	    7.0000 	   31.0000 	   51.2124 
    0.7095 	   32.0080 	    7.0000 	   31.0000 	   51.2554 
    0.8011 	   32.0290 	    7.0000 	   31.0000 	   51.2974 
    0.6943 	   32.0520 	    7.0000 	   31.0000 	   51.3434 
    0.4807 	   32.0725 	    7.0000 	   31.0000 	   51.3844 
    0.7401 	   32.0930 	    7.0000 	   31.0000 	   51.4254 
    0.7248 	   32.1150 	    7.0000 	   31.0000 	   51.4694 
    0.6638 	   32.1355 	    7.0000 	   31.0000 	   51.5104 
    0.6332 	   32.1565 	    7.0000 	   31.0000 	   51.5524 
    0.6790 	   32.1770 	    7.0000 	   31.0000 	   51.5934 
    0.6027 	   32.1965 	    7.0000 	   31.0000 	   51.6324 
    0.7553 	   32.2160 	    7.0000 	   31.0000 	   51.6714 
    0.6485 	   32.2350 	    7.0000 	   31.0000 	   51.7094 
    0.6485 	   32.2545 	    7.0000 	   31.0000 	   51.7484 
    0.7248 	   32.2750 	    7.0000 	   31.0000 	   51.7894 
    0.7401 	   32.2940 	    7.0000 	   31.0000 	   51.8274 
    0.6638 	   32.3120 	    7.0000 	   31.0000 	   51.8634 
    0.7706 	   32.3305 	    7.0000 	   31.0000 	   51.9004 
    0.5722 	   32.3495 	    7.0000 	   31.0000 	   51.9384 
    0.7401 	   32.3685 	    7.0000 	   31.0000 	   51.9764 
    0.7553 	   32.3895 	    7.0000 	   31.0000 	   52.0184 
    0.6180 	   32.4090 	    7.0000 	   31.0000 	   52.0574 
    0.6943 	   32.4285 	    7.0000 	   31.0000 	   52.0964 
    0.7553 	   32.4470 	    7.0000 	   31.0000 	   52.1334 
    0.7095 	   32.4660 	    7.0000 	   31.0000 	   52.1714 
    0.7095 	   32.4865 	    7.0000 	   31.0000 	   52.2124 
    0.7248 	   32.5080 	    7.0000 	   31.0000 	   52.2554 
    0.6790 	   32.5295 	    7.0000 	   31.0000 	   52.2984 
    0.8164 	   32.5505 	    7.0000 	   31.0000 	   52.3404 
    0.8164 	   32.5720 	    7.0000 	   31.0000 	   52.3834 
    0.6485 	   32.5930 	    7.0000 	   31.0000 	   52.4254 
    0.6638 	   32.6130 	    7.0000 	   31.0000 	   52.4654 
    0.7248 	   32.6325 	    7.0000 	   31.0000 	   52.5044 
    0.6332 	   32.6515 	    7.0000 	   31.0000 	   52.5424 
    0.8164 	   32.6705 	    7.0000 	   31.0000 	   52.5805 
    0.6790 	   32.6900 	    7.0000 	   31.0000 	   52.6195 
    0.5875 	   32.7100 	    7.0000 	   31.0000 	   52.6595 
    0.6180 	   32.7300 	    7.0000 	   31.0000 	   52.6995 
    0.6485 	   32.7510 	    7.0000 	   31.0000 	   52.7415 
    0.6332 	   32.7700 	    7.0000 	   31.0000 	   52.7795 
    0.6485 	   32.7905 	    7.0000 	   31.0000 	   52.8205 
    0.8011 	   32.8085 	    7.0000 	   31.0000 	   52.8565 
    0.7858 	   32.8270 	    7.0000 	   31.0000 	   52.8935 
    0.7401 	   32.8455 	    7.0000 	   31.0000 	   52.9305 
    0.7706 	   32.8650 	    7.0000 	   31.0000 	   52.9695 
    0.6790 	   32.8860 	    7.0000 	   31.0000 	   53.0115 
    0.7095 	   32.9065 	    7.0000 	   31.0000 	   53.0525 
    0.8164 	   32.9270 	    7.0000 	   31.0000 	   53.0935 
    0.5417 	   32.9490 	    7.0000 	   31.0000 	   53.1375 
    0.6790 	   32.9710 	    7.0000 	   31.0000 	   53.1815 
    0.7553 	   32.9925 	    7.0000 	   31.0000 	   53.2245 
    0.7706 	   33.0150 	    7.0000 	   31.0000 	   53.2695 
    0.7858 	   33.0355 	    7.0000 	   31.0000 	   53.3105 
    0.6332 	   33.0575 	    7.0000 	   31.0000 	   53.3545 
    0.5875 	   33.0760 	    7.0000 	   31.0000 	   53.3915 
    0.7095 	   33.0965 	    7.0000 	   31.0000 	   53.4325 
    0.8621 	   33.1160 	    7.0000 	   31.0000 	   53.4715 
    0.5875 	   33.1350 	    7.0000 	   31.0000 	   53.5095 
    0.7401 	   33.1545 	    7.0000 	   31.0000 	   53.5485 
    0.6332 	   33.1735 	    7.0000 	   31.0000 	   53.5865 
    0.7553 	   33.1925 	    7.0000 	   31.0000 	   53.6245 
    0.7401 	   33.2115 	    7.0000 	   31.0000 	   53.6625 
    0.7553 	   33.2315 	    7.0000 	   31.0000 	   53.7025 
    0.7095 	   33.2520 	    7.0000 	   31.0000 	   53.7435 
    0.6943 	   33.2710 	    7.0000 	   31.0000 	   53.7815 
    0.4196 	   33.2905 	    7.0000 	   31.0000 	   53.8205 
    0.3738 	   33.3085 	    7.0000 	   31.0000 	   53.8565 
    0.5570 	   33.3270 	    7.0000 	   31.0000 	   53.8935 
    0.6943 	   33.3460 	    7.0000 	   31.0000 	   53.9315 
    0.7553 	   33.3655 	    7.0000 	   31.0000 	   53.9705 
    0.6790 	   33.3845 	    7.0000 	   31.0000 	   54.0085 
    0.8011 	   33.4040 	    7.0000 	   31.0000 	   54.0475 
    0.6332 	   33.4225 	    7.0000 	   31.0000 	   54.0845 
    0.6485 	   33.4420 	    7.0000 	   31.0000 	   54.1235 
    0.6638 	   33.4610 	    7.0000 	   31.0000 	   54.1615 
    0.7858 	   33.4805 	    7.0000 	   31.0000 	   54.2005 
    0.6485 	   33.5000 	    7.0000 	   31.0000 	   54.2395 
    0.8316 	   33.5195 	    7.0000 	   31.0000 	   54.2785 
    0.6180 	   33.5385 	    7.0000 	   31.0000 	   54.3166 
    0.6943 	   33.5575 	    7.0000 	   31.0000 	   54.3546 
    0.6943 	   33.5780 	    7.0000 	   31.0000 	   54.3956 
    0.6485 	   33.5990 	    7.0000 	   31.0000 	   54.4376 
    0.8927 	   33.6195 	    7.0000 	   31.0000 	   54.4786 
    0.6027 	   33.6410 	    7.0000 	   31.0000 	   54.5216 
    0.8469 	   33.6605 	    7.0000 	   31.0000 	   54.5606 
    0.8164 	   33.6795 	    7.0000 	   31.0000 	   54.5986 
    0.8011 	   33.6985 	    7.0000 	   31.0000 	   54.6366 
    0.7858 	   33.7190 	    7.0000 	   31.0000 	   54.6776 
    0.6790 	   33.7395 	    7.0000 	   31.0000 	   54.7186 
    0.6485 	   33.7605 	    7.0000 	   31.0000 	   54.7606 
    0.6180 	   33.7800 	    7.0000 	   31.0000 	   54.7996 
    0.9537 	   33.7995 	    7.0000 	   31.0000 	   54.8386 
    0.7401 	   33.8180 	    7.0000 	   31.0000 	   54.8756 
    0.8011 	   33.8380 	    7.0000 	   31.0000 	   54.9156 
    0.6943 	   33.8580 	    7.0000 	   31.0000 	   54.9556 
    0.7095 	   33.8805 	    7.0000 	   31.0000 	   55.0006 
    0.6790 	   33.9020 	    7.0000 	   31.0000 	   55.0436 
    0.8011 	   33.9235 	    7.0000 	   31.0000 	   55.0866 
    0.8316 	   33.9460 	    7.0000 	   31.0000 	   55.1316 
    0.6790 	   33.9670 	    7.0000 	   31.0000 	   55.1736 
    0.6485 	   33.9885 	    7.0000 	   31.0000 	   55.2166 
    0.7401 	   34.0110 	    7.0000 	   31.0000 	   55.2616 
    0.4654 	   34.0330 	    7.0000 	   31.0000 	   55.3056 
    0.6332 	   34.0560 	    7.0000 	   31.0000 	   55.3516 
    0.6790 	   34.0765 	    7.0000 	   31.0000 	   55.3926 
    0.6638 	   34.0955 	    7.0000 	   31.0000 	   55.4306 
    0.7553 	   34.1145 	    7.0000 	   31.0000 	   55.4686 
    0.5722 	   34.1340 	    7.0000 	   31.0000 	   55.5076 
    0.6943 	   34.1535 	    7.0000 	   31.0000 	   55.5466 
    0.7401 	   34.1725 	    7.0000 	   31.0000 	   55.5846 
    0.6485 	   34.1920 	    7.0000 	   31.0000 	   55.6236 
    0.6485 	   34.2110 	    7.0000 	   31.0000 	   55.6616 
    0.8011 	   34.2315 	    7.0000 	   31.0000 	   55.7026 
    0.8774 	   34.2525 	    7.0000 	   31.0000 	   55.7446 
    0.7401 	   34.2735 	    7.0000 	   31.0000 	   55.7866 
    0.7553 	   34.2925 	    7.0000 	   31.0000 	   55.8246 
    0.7401 	   34.3110 	    7.0000 	   31.0000 	   55.8616 
    0.6638 	   34.3300 	    7.0000 	   31.0000 	   55.8996 
    0.6027 	   34.3495 	    7.0000 	   31.0000 	   55.9386 
    0.6790 	   34.3685 	    7.0000 	   31.0000 	   55.9766 
    0.7248 	   34.3905 	    7.0000 	   31.0000 	   56.0196 
    0.6790 	   34.4115 	    7.0000 	   31.0000 	   56.0617 
    0.6332 	   34.4315 	    7.0000 	   31.0000 	   56.1017 
    0.5722 	   34.4530 	    7.0000 	   31.0000 	   56.1447 
    0.6790 	   34.4735 	    7.0000 	   31.0000 	   56.1857 
    0.6943 	   34.4955 	    7.0000 	   31.0000 	   56.2297 
    0.7095 	   34.5165 	    7.0000 	   31.0000 	   56.2717 
    0.6638 	   34.5375 	    7.0000 	   31.0000 	   56.3137 
    0.6943 	   34.5580 	    7.0000 	   31.0000 	   56.3547 
    0.6943 	   34.5795 	    7.0000 	   31.0000 	   56.3977 
    0.8621 	   34.6000 	    7.0000 	   31.0000 	   56.4387 
    0.6485 	   34.6210 	    7.0000 	   31.0000 	   56.4807 
    0.7095 	   34.6435 	    7.0000 	   31.0000 	   56.5257 
    0.7401 	   34.6655 	    7.0000 	   31.0000 	   56.5697 
    0.6332 	   34.6860 	    7.0000 	   31.0000 	   56.6107 
    0.8621 	   34.7065 	    7.0000 	   31.0000 	   56.6517 
    0.6638 	   34.7285 	    7.0000 	   31.0000 	   56.6957 
    0.7248 	   34.7500 	    7.0000 	   31.0000 	   56.7387 
    0.6638 	   34.7695 	    7.0000 	   31.0000 	   56.7777 
    0.8621 	   34.7890 	    7.0000 	   31.0000 	   56.8167 
    0.8316 	   34.8080 	    7.0000 	   31.0000 	   56.8547 
    0.6485 	   34.8270 	    7.0000 	   31.0000 	   56.8927 
    0.7706 	   34.8465 	    7.0000 	   31.0000 	   56.9317 
    0.7248 	   34.8660 	    7.0000 	   31.0000 	   56.9707 
    0.7401 	   34.8865 	    7.0000 	   31.0000 	   57.0117 
    0.4349 	   34.9060 	    7.0000 	   31.0000 	   57.0507 
    0.8011 	   34.9260 	    7.0000 	   31.0000 	   57.0907 
    0.7095 	   34.9460 	    7.0000 	   31.0000 	   57.1307 
    0.6790 	   34.9655 	    7.0000 	   31.0000 	   57.1697 
    0.6943 	   34.9860 	    7.0000 	   31.0000 	   57.2107 
    0.6790 	   35.0070 	    7.0000 	   31.0000 	   57.2527 
    0.7401 	   35.0290 	    7.0000 	   31.0000 	   57.2967 
    0.7401 	   35.0515 	    7.0000 	   31.0000 	   57.3417 
    0.6027 	   35.0730 	    7.0000 	   31.0000 	   57.3847 
    0.8927 	   35.0935 	    7.0000 	   31.0000 	   57.4257 
    0.6180 	   35.1125 	    7.0000 	   31.0000 	   57.4637 
    0.8011 	   35.1325 	    7.0000 	   31.0000 	   57.5037 
    0.7248 	   35.1535 	    7.0000 	   31.0000 	   57.5457 
    0.8316 	   35.1730 	    7.0000 	   31.0000 	   57.5847 
    0.6332 	   35.1925 	    7.0000 	   31.0000 	   57.6237 
    0.6638 	   35.2140 	    7.0000 	   31.0000 	   57.6667 
    0.6485 	   35.2335 	    7.0000 	   31.0000 	   57.7057 
    0.6790 	   35.2530 	    7.0000 	   31.0000 	   57.7447 
    0.8316 	   35.2725 	    7.0000 	   31.0000 	   57.7837 
    0.8927 	   35.2940 	    7.0000 	   31.0000 	   57.8258 
    0.6943 	   35.3125 	    7.0000 	   31.0000 	   57.8638 
    0.6485 	   35.3315 	    7.0000 	   31.0000 	   57.9018 
    0.6638 	   35.3515 	    7.0000 	   31.0000 	   57.9418 
    0.7401 	   35.3710 	    7.0000 	   31.0000 	   57.9808 
    0.7095 	   35.3905 	    7.0000 	   31.0000 	   58.0198 
    0.3891 	   35.4105 	    7.0000 	   31.0000 	   58.0598 
    0.7095 	   35.4300 	    7.0000 	   31.0000 	   58.0988 
    0.8469 	   35.4500 	    7.0000 	   31.0000 	   58.1388 
    0.6943 	   35.4690 	    7.0000 	   31.0000 	   58.1768 
    0.5722 	   35.4885 	    7.0000 	   31.0000 	   58.2158 
    0.7401 	   35.5080 	    7.0000 	   31.0000 	   58.2548 
    0.6638 	   35.5280 	    7.0000 	   31.0000 	   58.2938 
    0.6790 	   35.5485 	    7.0000 	   31.0000 	   58.3358 
    0.6638 	   35.5700 	    7.0000 	   31.0000 	   58.3788 
    0.7401 	   35.5920 	    7.0000 	   31.0000 	   58.4228 
    0.6332 	   35.6145 	    7.0000 	   31.0000 	   58.4678 
    0.6943 	   35.6370 	    7.0000 	   31.0000 	   58.5128 
    0.6485 	   35.6590 	    7.0000 	   31.0000 	   58.5568 
    0.8774 	   35.6815 	    7.0000 	   31.0000 	   58.6018 
    0.8164 	   35.7030 	    7.0000 	   31.0000 	   58.6448 
    0.6485 	   35.7235 	    7.0000 	   31.0000 	   58.6848 
    0.8927 	   35.7430 	    7.0000 	   31.0000 	   58.7248 
    0.8927 	   35.7640 	    7.0000 	   31.0000 	   58.7668 
    0.7706 	   35.7850 	    7.0000 	   31.0000 	   58.8088 
    0.6943 	   35.8040 	    7.0000 	   31.0000 	   58.8468 
    0.8469 	   35.8230 	    7.0000 	   31.0000 	   58.8848 
    0.7401 	   35.8430 	    7.0000 	   31.0000 	   58.9248 
    0.6790 	   35.8640 	    7.0000 	   31.0000 	   58.9668 
    0.6332 	   35.8840 	    7.0000 	   31.0000 	   59.0068 
    0.7095 	   35.9040 	    7.0000 	   31.0000 	   59.0468 
    0.7401 	   35.9235 	    7.0000 	   31.0000 	   59.0858 
    0.7248 	   35.9435 	    7.0000 	   31.0000 	   59.1258 
    0.8164 	   35.9640 	    7.0000 	   31.0000 	   59.1668 
    0.6943 	   35.9845 	    7.0000 	   31.0000 	   59.2078 
    0.7706 	   36.0045 	    7.0000 	   31.0000 	   59.2478 
    0.6485 	   36.0260 	    7.0000 	   31.0000 	   59.2908 
    0.6943 	   36.0500 	    7.0000 	   31.0000 	   59.3378 
    0.6485 	   36.0725 	    7.0000 	   31.0000 	   59.3838 
    0.7553 	   36.0950 	    7.0000 	   31.0000 	   59.4288 
    0.7095 	   36.1160 	    7.0000 	   31.0000 	   59.4708 
    0.6180 	   36.1385 	    7.0000 	   31.0000 	   59.5159 
    0.8164 	   36.1590 	    7.0000 	   31.0000 	   59.5569 
    0.7401 	   36.1805 	    7.0000 	   31.0000 	   59.5999 
    0.6638 	   36.2010 	    7.0000 	   31.0000 	   59.6409 
    0.7858 	   36.2225 	    7.0000 	   31.0000 	   59.6839 
    0.7401 	   36.2440 	    7.0000 	   31.0000 	   59.7269 
    0.6638 	   36.2650 	    7.0000 	   31.0000 	   59.7689 
    0.7553 	   36.2845 	    7.0000 	   31.0000 	   59.8079 
    0.6180 	   36.3035 	    7.0000 	   31.0000 	   59.8459 
    0.6790 	   36.3225 	    7.0000 	   31.0000 	   59.8839 
    0.7248 	   36.3420 	    7.0000 	   31.0000 	   59.9229 
    0.6638 	   36.3640 	    7.0000 	   31.0000 	   59.9669 
    0.6180 	   36.3860 	    7.0000 	   32.0000 	    0.0109 
    0.6943 	   36.4075 	    7.0000 	   32.0000 	    0.0539 
    0.7553 	   36.4295 	    7.0000 	   32.0000 	    0.0979 
    0.7858 	   36.4505 	    7.0000 	   32.0000 	    0.1399 
    0.8164 	   36.4725 	    7.0000 	   32.0000 	    0.1839 
    0.7095 	   36.4945 	    7.0000 	   32.0000 	    0.2279 
    0.7706 	   36.5140 	    7.0000 	   32.0000 	    0.2669 
    0.6790 	   36.5340 	    7.0000 	   32.0000 	    0.3069 
    0.7706 	   36.5535 	    7.0000 	   32.0000 	    0.3459 
    0.7553 	   36.5730 	    7.0000 	   32.0000 	    0.3849 
    0.9384 	   36.5930 	    7.0000 	   32.0000 	    0.4249 
    0.6180 	   36.6125 	    7.0000 	   32.0000 	    0.4639 
    0.6027 	   36.6320 	    7.0000 	   32.0000 	    0.5029 
    0.8621 	   36.6530 	    7.0000 	   32.0000 	    0.5449 
    0.6943 	   36.6725 	    7.0000 	   32.0000 	    0.5839 
    0.7095 	   36.6925 	    7.0000 	   32.0000 	    0.6239 
    0.7401 	   36.7170 	    7.0000 	   32.0000 	    0.6729 
    0.7553 	   36.7380 	    7.0000 	   32.0000 	    0.7149 
    0.6790 	   36.7590 	    7.0000 	   32.0000 	    0.7569 
    0.8011 	   36.7805 	    7.0000 	   32.0000 	    0.7999 
    0.7553 	   36.8005 	    7.0000 	   32.0000 	    0.8399 
    0.7858 	   36.8195 	    7.0000 	   32.0000 	    0.8779 
    0.6943 	   36.8390 	    7.0000 	   32.0000 	    0.9169 
    0.8011 	   36.8605 	    7.0000 	   32.0000 	    0.9599 
    0.6485 	   36.8825 	    7.0000 	   32.0000 	    1.0039 
    0.6790 	   36.9050 	    7.0000 	   32.0000 	    1.0489 
    0.5875 	   36.9260 	    7.0000 	   32.0000 	    1.0909 
    0.8011 	   36.9495 	    7.0000 	   32.0000 	    1.1379 
    0.7095 	   36.9720 	    7.0000 	   32.0000 	    1.1829 
    0.7706 	   36.9940 	    7.0000 	   32.0000 	    1.2269 
    0.7401 	   37.0155 	    7.0000 	   32.0000 	    1.2699 
    0.6638 	   37.0375 	    7.0000 	   32.0000 	    1.3140 
    0.8621 	   37.0605 	    7.0000 	   32.0000 	    1.3600 
    0.7553 	   37.0820 	    7.0000 	   32.0000 	    1.4030 
    0.7095 	   37.1030 	    7.0000 	   32.0000 	    1.4450 
    0.3891 	   37.1245 	    7.0000 	   32.0000 	    1.4880 
    0.6943 	   37.1460 	    7.0000 	   32.0000 	    1.5310 
    0.7553 	   37.1685 	    7.0000 	   32.0000 	    1.5760 
    0.6790 	   37.1905 	    7.0000 	   32.0000 	    1.6200 
    0.7706 	   37.2110 	    7.0000 	   32.0000 	    1.6610 
    0.7248 	   37.2330 	    7.0000 	   32.0000 	    1.7050 
    0.7553 	   37.2545 	    7.0000 	   32.0000 	    1.7480 
    0.7553 	   37.2760 	    7.0000 	   32.0000 	    1.7910 
    0.7401 	   37.2975 	    7.0000 	   32.0000 	    1.8340 
    0.6943 	   37.3170 	    7.0000 	   32.0000 	    1.8730 
    0.7706 	   37.3370 	    7.0000 	   32.0000 	    1.9130 
    0.8011 	   37.3565 	    7.0000 	   32.0000 	    1.9520 
    0.6790 	   37.3795 	    7.0000 	   32.0000 	    1.9980 
    0.8774 	   37.4015 	    7.0000 	   32.0000 	    2.0420 
    0.3738 	   37.4230 	    7.0000 	   32.0000 	    2.0850 
    0.8164 	   37.4460 	    7.0000 	   32.0000 	    2.1310 
    0.7401 	   37.4670 	    7.0000 	   32.0000 	    2.1730 
    0.7401 	   37.4895 	    7.0000 	   32.0000 	    2.2180 
    0.8774 	   37.5115 	    7.0000 	   32.0000 	    2.2620 
    0.6332 	   37.5330 	    7.0000 	   32.0000 	    2.3050 
    0.7248 	   37.5555 	    7.0000 	   32.0000 	    2.3500 
    0.6790 	   37.5770 	    7.0000 	   32.0000 	    2.3930 
    0.7553 	   37.5980 	    7.0000 	   32.0000 	    2.4350 
    0.6638 	   37.6210 	    7.0000 	   32.0000 	    2.4810 
    0.5570 	   37.6420 	    7.0000 	   32.0000 	    2.5230 
    0.5875 	   37.6655 	    7.0000 	   32.0000 	    2.5700 
    0.8621 	   37.6880 	    7.0000 	   32.0000 	    2.6150 
    0.7706 	   37.7090 	    7.0000 	   32.0000 	    2.6570 
    0.7248 	   37.7330 	    7.0000 	   32.0000 	    2.7050 
    0.8316 	   37.7545 	    7.0000 	   32.0000 	    2.7480 
    0.6943 	   37.7745 	    7.0000 	   32.0000 	    2.7880 
    0.7553 	   37.7955 	    7.0000 	   32.0000 	    2.8300 
    0.5875 	   37.8150 	    7.0000 	   32.0000 	    2.8690 
    0.7401 	   37.8340 	    7.0000 	   32.0000 	    2.9070 
    0.7706 	   37.8540 	    7.0000 	   32.0000 	    2.9470 
    0.6943 	   37.8740 	    7.0000 	   32.0000 	    2.9870 
    0.7553 	   37.8940 	    7.0000 	   32.0000 	    3.0270 
    0.7706 	   37.9140 	    7.0000 	   32.0000 	    3.0671 
    0.7401 	   37.9340 	    7.0000 	   32.0000 	    3.1071 
    0.6638 	   37.9540 	    7.0000 	   32.0000 	    3.1471 
    0.7858 	   37.9740 	    7.0000 	   32.0000 	    3.1871 
    0.8164 	   37.9940 	    7.0000 	   32.0000 	    3.2271 
    0.5417 	   38.0135 	    7.0000 	   32.0000 	    3.2661 
    0.9232 	   38.0335 	    7.0000 	   32.0000 	    3.3061 
    0.3738 	   38.0555 	    7.0000 	   32.0000 	    3.3501 
    0.7248 	   38.0750 	    7.0000 	   32.0000 	    3.3891 
    0.8164 	   38.0955 	    7.0000 	   32.0000 	    3.4301 
    0.5722 	   38.1150 	    7.0000 	   32.0000 	    3.4691 
    0.7248 	   38.1375 	    7.0000 	   32.0000 	    3.5141 
    0.6180 	   38.1595 	    7.0000 	   32.0000 	    3.5581 
    0.7095 	   38.1810 	    7.0000 	   32.0000 	    3.6011 
    0.7706 	   38.2020 	    7.0000 	   32.0000 	    3.6431 
    0.7553 	   38.2225 	    7.0000 	   32.0000 	    3.6841 
    0.7553 	   38.2445 	    7.0000 	   32.0000 	    3.7281 
    0.7095 	   38.2645 	    7.0000 	   32.0000 	    3.7681 
    0.8164 	   38.2855 	    7.0000 	   32.0000 	    3.8101 
    0.7401 	   38.3055 	    7.0000 	   32.0000 	    3.8491 
    0.6180 	   38.3250 	    7.0000 	   32.0000 	    3.8891 
    0.4044 	   38.3465 	    7.0000 	   32.0000 	    3.9321 
    0.6638 	   38.3680 	    7.0000 	   32.0000 	    3.9751 
    0.9079 	   38.3895 	    7.0000 	   32.0000 	    4.0181 
    0.6638 	   38.4115 	    7.0000 	   32.0000 	    4.0621 
    0.7401 	   38.4325 	    7.0000 	   32.0000 	    4.1041 
    0.8469 	   38.4545 	    7.0000 	   32.0000 	    4.1481 
    0.6332 	   38.4755 	    7.0000 	   32.0000 	    4.1901 
    0.7401 	   38.4980 	    7.0000 	   32.0000 	    4.2351 
    0.8011 	   38.5210 	    7.0000 	   32.0000 	    4.2811 
    0.8927 	   38.5425 	    7.0000 	   32.0000 	    4.3241 
    0.6790 	   38.5640 	    7.0000 	   32.0000 	    4.3671 
    0.7858 	   38.5855 	    7.0000 	   32.0000 	    4.4101 
    0.8011 	   38.6065 	    7.0000 	   32.0000 	    4.4521 
    0.6332 	   38.6260 	    7.0000 	   32.0000 	    4.4911 
    0.8011 	   38.6480 	    7.0000 	   32.0000 	    4.5351 
    0.8621 	   38.6705 	    7.0000 	   32.0000 	    4.5801 
    0.6180 	   38.6925 	    7.0000 	   32.0000 	    4.6241 
    0.8621 	   38.7145 	    7.0000 	   32.0000 	    4.6681 
    0.7553 	   38.7365 	    7.0000 	   32.0000 	    4.7121 
    0.8164 	   38.7570 	    7.0000 	   32.0000 	    4.7531 
    0.6180 	   38.7775 	    7.0000 	   32.0000 	    4.7942 
    0.6027 	   38.7975 	    7.0000 	   32.0000 	    4.8342 
    0.5722 	   38.8165 	    7.0000 	   32.0000 	    4.8722 
    0.6790 	   38.8360 	    7.0000 	   32.0000 	    4.9112 
    0.8927 	   38.8555 	    7.0000 	   32.0000 	    4.9502 
    0.6332 	   38.8755 	    7.0000 	   32.0000 	    4.9902 
    0.8469 	   38.8980 	    7.0000 	   32.0000 	    5.0352 
    0.6332 	   38.9215 	    7.0000 	   32.0000 	    5.0822 
    0.7401 	   38.9425 	    7.0000 	   32.0000 	    5.1242 
    0.7858 	   38.9635 	    7.0000 	   32.0000 	    5.1662 
    0.6332 	   38.9835 	    7.0000 	   32.0000 	    5.2062 
    0.9537 	   39.0045 	    7.0000 	   32.0000 	    5.2482 
    0.6485 	   39.0250 	    7.0000 	   32.0000 	    5.2892 
    0.7248 	   39.0480 	    7.0000 	   32.0000 	    5.3352 
    0.8164 	   39.0680 	    7.0000 	   32.0000 	    5.3752 
    0.8774 	   39.0890 	    7.0000 	   32.0000 	    5.4172 
    0.6638 	   39.1095 	    7.0000 	   32.0000 	    5.4582 
    0.6790 	   39.1295 	    7.0000 	   32.0000 	    5.4982 
    0.8469 	   39.1520 	    7.0000 	   32.0000 	    5.5432 
    0.6638 	   39.1745 	    7.0000 	   32.0000 	    5.5882 
    0.7553 	   39.1950 	    7.0000 	   32.0000 	    5.6292 
    0.7858 	   39.2155 	    7.0000 	   32.0000 	    5.6702 
    0.8774 	   39.2365 	    7.0000 	   32.0000 	    5.7122 
    0.6943 	   39.2575 	    7.0000 	   32.0000 	    5.7542 
    0.6790 	   39.2790 	    7.0000 	   32.0000 	    5.7972 
    0.6943 	   39.2990 	    7.0000 	   32.0000 	    5.8372 
    0.7706 	   39.3185 	    7.0000 	   32.0000 	    5.8762 
    0.8164 	   39.3385 	    7.0000 	   32.0000 	    5.9162 
    0.7248 	   39.3605 	    7.0000 	   32.0000 	    5.9602 
    0.7706 	   39.3840 	    7.0000 	   32.0000 	    6.0072 
    0.6943 	   39.4075 	    7.0000 	   32.0000 	    6.0542 
    0.8774 	   39.4290 	    7.0000 	   32.0000 	    6.0972 
    0.7095 	   39.4500 	    7.0000 	   32.0000 	    6.1392 
    0.6943 	   39.4715 	    7.0000 	   32.0000 	    6.1822 
    0.7858 	   39.4935 	    7.0000 	   32.0000 	    6.2262 
    0.6332 	   39.5140 	    7.0000 	   32.0000 	    6.2672 
    0.7706 	   39.5345 	    7.0000 	   32.0000 	    6.3082 
    0.7248 	   39.5545 	    7.0000 	   32.0000 	    6.3482 
    0.6638 	   39.5750 	    7.0000 	   32.0000 	    6.3892 
    0.8621 	   39.5975 	    7.0000 	   32.0000 	    6.4342 
    0.4196 	   39.6190 	    7.0000 	   32.0000 	    6.4772 
    0.9079 	   39.6415 	    7.0000 	   32.0000 	    6.5222 
    0.8469 	   39.6630 	    7.0000 	   32.0000 	    6.5653 
    0.9079 	   39.6840 	    7.0000 	   32.0000 	    6.6073 
    0.7248 	   39.7070 	    7.0000 	   32.0000 	    6.6533 
    0.7095 	   39.7270 	    7.0000 	   32.0000 	    6.6933 
    0.7248 	   39.7480 	    7.0000 	   32.0000 	    6.7353 
    0.7553 	   39.7695 	    7.0000 	   32.0000 	    6.7783 
    0.6943 	   39.7915 	    7.0000 	   32.0000 	    6.8223 
    0.7553 	   39.8115 	    7.0000 	   32.0000 	    6.8623 
    0.7095 	   39.8315 	    7.0000 	   32.0000 	    6.9023 
    0.9384 	   39.8520 	    7.0000 	   32.0000 	    6.9433 
    0.7858 	   39.8755 	    7.0000 	   32.0000 	    6.9903 
