Thayer School of Engineering        Instron 4442 Mechanical Testing System
7/4/2018 10:21:41 PM

  Force (N)	Extension (mm)	Not Used	Not Used	Not Used	     Hour	    Minute	    Second
    0.3128 	    0.5180 	   22.0000 	   22.0000 	   43.3389 
    0.4501 	    0.5325 	   22.0000 	   22.0000 	   43.3679 
    0.3433 	    0.5630 	   22.0000 	   22.0000 	   43.4289 
    0.0229 	    0.5915 	   22.0000 	   22.0000 	   43.4859 
    0.2060 	    0.6155 	   22.0000 	   22.0000 	   43.5339 
    0.3586 	    0.6435 	   22.0000 	   22.0000 	   43.5899 
    0.2823 	    0.6680 	   22.0000 	   22.0000 	   43.6389 
    0.5112 	    0.6950 	   22.0000 	   22.0000 	   43.6929 
    0.3281 	    0.7230 	   22.0000 	   22.0000 	   43.7489 
    0.3433 	    0.7475 	   22.0000 	   22.0000 	   43.7979 
    0.3433 	    0.7725 	   22.0000 	   22.0000 	   43.8479 
    0.0992 	    0.7975 	   22.0000 	   22.0000 	   43.8979 
    0.2670 	    0.8115 	   22.0000 	   22.0000 	   43.9259 
    0.3281 	    0.8400 	   22.0000 	   22.0000 	   43.9829 
    0.3738 	    0.8685 	   22.0000 	   22.0000 	   44.0399 
    0.3433 	    0.8940 	   22.0000 	   22.0000 	   44.0909 
    0.2976 	    0.9185 	   22.0000 	   22.0000 	   44.1399 
    0.0687 	    0.9455 	   22.0000 	   22.0000 	   44.1939 
    0.3891 	    0.9715 	   22.0000 	   22.0000 	   44.2459 
    0.2823 	    0.9965 	   22.0000 	   22.0000 	   44.2959 
    0.3281 	    1.0215 	   22.0000 	   22.0000 	   44.3459 
    0.2976 	    1.0495 	   22.0000 	   22.0000 	   44.4019 
    0.3128 	    1.0650 	   22.0000 	   22.0000 	   44.4329 
    0.2518 	    1.0805 	   22.0000 	   22.0000 	   44.4639 
    0.2213 	    1.0975 	   22.0000 	   22.0000 	   44.4979 
    0.4349 	    1.1280 	   22.0000 	   22.0000 	   44.5589 
    0.3891 	    1.1590 	   22.0000 	   22.0000 	   44.6209 
    0.3128 	    1.1880 	   22.0000 	   22.0000 	   44.6789 
    0.3433 	    1.2050 	   22.0000 	   22.0000 	   44.7129 
    0.3281 	    1.2335 	   22.0000 	   22.0000 	   44.7699 
    0.4349 	    1.2600 	   22.0000 	   22.0000 	   44.8229 
    0.3738 	    1.2845 	   22.0000 	   22.0000 	   44.8720 
    0.3586 	    1.3085 	   22.0000 	   22.0000 	   44.9200 
    0.2976 	    1.3250 	   22.0000 	   22.0000 	   44.9530 
   -0.0229 	    1.3525 	   22.0000 	   22.0000 	   45.0080 
    0.2365 	    1.3770 	   22.0000 	   22.0000 	   45.0570 
    0.2060 	    1.4070 	   22.0000 	   22.0000 	   45.1170 
    0.3128 	    1.4355 	   22.0000 	   22.0000 	   45.1740 
    0.3433 	    1.4625 	   22.0000 	   22.0000 	   45.2280 
    0.1602 	    1.4875 	   22.0000 	   22.0000 	   45.2780 
   -0.0076 	    1.5125 	   22.0000 	   22.0000 	   45.3280 
    0.3128 	    1.5375 	   22.0000 	   22.0000 	   45.3780 
    0.3738 	    1.5685 	   22.0000 	   22.0000 	   45.4400 
    0.2213 	    1.5955 	   22.0000 	   22.0000 	   45.4940 
    0.2213 	    1.6095 	   22.0000 	   22.0000 	   45.5220 
    0.3738 	    1.6240 	   22.0000 	   22.0000 	   45.5510 
    0.4349 	    1.6375 	   22.0000 	   22.0000 	   45.5780 
    0.3281 	    1.6520 	   22.0000 	   22.0000 	   45.6070 
    0.4349 	    1.6815 	   22.0000 	   22.0000 	   45.6660 
    0.2670 	    1.6960 	   22.0000 	   22.0000 	   45.6950 
    0.3128 	    1.7110 	   22.0000 	   22.0000 	   45.7250 
    0.3281 	    1.7270 	   22.0000 	   22.0000 	   45.7570 
    0.4044 	    1.7435 	   22.0000 	   22.0000 	   45.7900 
    0.3281 	    1.7600 	   22.0000 	   22.0000 	   45.8230 
    0.3586 	    1.7780 	   22.0000 	   22.0000 	   45.8590 
    0.3281 	    1.7930 	   22.0000 	   22.0000 	   45.8890 
    0.4196 	    1.8100 	   22.0000 	   22.0000 	   45.9230 
    0.4044 	    1.8255 	   22.0000 	   22.0000 	   45.9540 
    0.3128 	    1.8410 	   22.0000 	   22.0000 	   45.9850 
    0.2060 	    1.8580 	   22.0000 	   22.0000 	   46.0190 
    0.2365 	    1.8740 	   22.0000 	   22.0000 	   46.0510 
    0.4501 	    1.8895 	   22.0000 	   22.0000 	   46.0820 
    0.4196 	    1.9055 	   22.0000 	   22.0000 	   46.1140 
    0.4654 	    1.9210 	   22.0000 	   22.0000 	   46.1450 
    0.3891 	    1.9375 	   22.0000 	   22.0000 	   46.1780 
    0.2823 	    1.9535 	   22.0000 	   22.0000 	   46.2100 
    0.4196 	    1.9690 	   22.0000 	   22.0000 	   46.2410 
    0.1907 	    1.9860 	   22.0000 	   22.0000 	   46.2750 
    0.3281 	    2.0030 	   22.0000 	   22.0000 	   46.3090 
    0.4501 	    2.0185 	   22.0000 	   22.0000 	   46.3400 
    0.6638 	    2.0340 	   22.0000 	   22.0000 	   46.3710 
    0.2518 	    2.0485 	   22.0000 	   22.0000 	   46.4000 
    0.5264 	    2.0775 	   22.0000 	   22.0000 	   46.4580 
    0.2670 	    2.0945 	   22.0000 	   22.0000 	   46.4920 
    0.4349 	    2.1100 	   22.0000 	   22.0000 	   46.5230 
    0.2976 	    2.1275 	   22.0000 	   22.0000 	   46.5580 
    0.4501 	    2.1420 	   22.0000 	   22.0000 	   46.5870 
    0.4501 	    2.1560 	   22.0000 	   22.0000 	   46.6151 
    0.3891 	    2.1695 	   22.0000 	   22.0000 	   46.6421 
    0.2670 	    2.1830 	   22.0000 	   22.0000 	   46.6691 
    0.3433 	    2.1970 	   22.0000 	   22.0000 	   46.6971 
    0.3586 	    2.2105 	   22.0000 	   22.0000 	   46.7241 
    0.4959 	    2.2235 	   22.0000 	   22.0000 	   46.7501 
    0.4959 	    2.2375 	   22.0000 	   22.0000 	   46.7781 
    0.4196 	    2.2510 	   22.0000 	   22.0000 	   46.8051 
    0.3738 	    2.2640 	   22.0000 	   22.0000 	   46.8311 
    0.4196 	    2.2780 	   22.0000 	   22.0000 	   46.8591 
    0.3586 	    2.2920 	   22.0000 	   22.0000 	   46.8871 
    0.4959 	    2.3060 	   22.0000 	   22.0000 	   46.9151 
    0.2823 	    2.3225 	   22.0000 	   22.0000 	   46.9481 
    0.4349 	    2.3395 	   22.0000 	   22.0000 	   46.9821 
    0.3891 	    2.3560 	   22.0000 	   22.0000 	   47.0151 
    0.5417 	    2.3715 	   22.0000 	   22.0000 	   47.0461 
    0.2823 	    2.3875 	   22.0000 	   22.0000 	   47.0781 
    0.3738 	    2.4050 	   22.0000 	   22.0000 	   47.1131 
    0.4959 	    2.4215 	   22.0000 	   22.0000 	   47.1461 
    0.2976 	    2.4380 	   22.0000 	   22.0000 	   47.1791 
    0.4349 	    2.4545 	   22.0000 	   22.0000 	   47.2121 
    0.3128 	    2.4695 	   22.0000 	   22.0000 	   47.2421 
    0.2976 	    2.4860 	   22.0000 	   22.0000 	   47.2751 
    0.2976 	    2.5015 	   22.0000 	   22.0000 	   47.3061 
    0.3433 	    2.5185 	   22.0000 	   22.0000 	   47.3401 
    0.2976 	    2.5350 	   22.0000 	   22.0000 	   47.3731 
    0.3281 	    2.5515 	   22.0000 	   22.0000 	   47.4061 
    0.4349 	    2.5685 	   22.0000 	   22.0000 	   47.4401 
    0.4349 	    2.5845 	   22.0000 	   22.0000 	   47.4721 
    0.1144 	    2.5995 	   22.0000 	   22.0000 	   47.5021 
    0.3586 	    2.6150 	   22.0000 	   22.0000 	   47.5331 
    0.3586 	    2.6290 	   22.0000 	   22.0000 	   47.5611 
    0.2823 	    2.6445 	   22.0000 	   22.0000 	   47.5921 
    0.2976 	    2.6610 	   22.0000 	   22.0000 	   47.6251 
    0.5722 	    2.6775 	   22.0000 	   22.0000 	   47.6581 
    0.3738 	    2.6925 	   22.0000 	   22.0000 	   47.6881 
    0.0229 	    2.7065 	   22.0000 	   22.0000 	   47.7161 
    0.3281 	    2.7200 	   22.0000 	   22.0000 	   47.7431 
    0.2213 	    2.7365 	   22.0000 	   22.0000 	   47.7761 
    0.3738 	    2.7510 	   22.0000 	   22.0000 	   47.8051 
    0.3738 	    2.7665 	   22.0000 	   22.0000 	   47.8361 
    0.1602 	    2.7835 	   22.0000 	   22.0000 	   47.8701 
    0.4044 	    2.7985 	   22.0000 	   22.0000 	   47.9001 
    0.2670 	    2.8135 	   22.0000 	   22.0000 	   47.9301 
    0.0839 	    2.8280 	   22.0000 	   22.0000 	   47.9591 
    0.5417 	    2.8455 	   22.0000 	   22.0000 	   47.9941 
    0.4501 	    2.8605 	   22.0000 	   22.0000 	   48.0241 
    0.3433 	    2.8760 	   22.0000 	   22.0000 	   48.0551 
    0.4044 	    2.8920 	   22.0000 	   22.0000 	   48.0871 
    0.2670 	    2.9070 	   22.0000 	   22.0000 	   48.1171 
    0.4807 	    2.9220 	   22.0000 	   22.0000 	   48.1471 
    0.4807 	    2.9380 	   22.0000 	   22.0000 	   48.1791 
    0.3433 	    2.9525 	   22.0000 	   22.0000 	   48.2081 
    0.3128 	    2.9680 	   22.0000 	   22.0000 	   48.2391 
    0.3586 	    2.9850 	   22.0000 	   22.0000 	   48.2731 
    0.2518 	    2.9995 	   22.0000 	   22.0000 	   48.3021 
    0.4501 	    3.0150 	   22.0000 	   22.0000 	   48.3331 
    0.3738 	    3.0310 	   22.0000 	   22.0000 	   48.3652 
    0.5570 	    3.0475 	   22.0000 	   22.0000 	   48.3982 
    0.1450 	    3.0625 	   22.0000 	   22.0000 	   48.4282 
    0.2365 	    3.0775 	   22.0000 	   22.0000 	   48.4582 
    0.4959 	    3.0955 	   22.0000 	   22.0000 	   48.4942 
    0.4807 	    3.1115 	   22.0000 	   22.0000 	   48.5262 
    0.3738 	    3.1275 	   22.0000 	   22.0000 	   48.5582 
    0.2365 	    3.1440 	   22.0000 	   22.0000 	   48.5912 
    0.3128 	    3.1595 	   22.0000 	   22.0000 	   48.6222 
    0.2670 	    3.1740 	   22.0000 	   22.0000 	   48.6512 
    0.0076 	    3.1905 	   22.0000 	   22.0000 	   48.6842 
    0.2976 	    3.2055 	   22.0000 	   22.0000 	   48.7142 
    0.2976 	    3.2215 	   22.0000 	   22.0000 	   48.7462 
    0.3891 	    3.2375 	   22.0000 	   22.0000 	   48.7782 
    0.2670 	    3.2535 	   22.0000 	   22.0000 	   48.8102 
    0.3738 	    3.2680 	   22.0000 	   22.0000 	   48.8392 
    0.4959 	    3.2845 	   22.0000 	   22.0000 	   48.8722 
    0.3128 	    3.2995 	   22.0000 	   22.0000 	   48.9022 
    0.2976 	    3.3145 	   22.0000 	   22.0000 	   48.9322 
    0.3433 	    3.3300 	   22.0000 	   22.0000 	   48.9632 
    0.3586 	    3.3455 	   22.0000 	   22.0000 	   48.9942 
    0.3738 	    3.3605 	   22.0000 	   22.0000 	   49.0242 
    0.3586 	    3.3775 	   22.0000 	   22.0000 	   49.0582 
    0.3281 	    3.3950 	   22.0000 	   22.0000 	   49.0932 
    0.5264 	    3.4110 	   22.0000 	   22.0000 	   49.1252 
    0.3433 	    3.4265 	   22.0000 	   22.0000 	   49.1562 
    0.3891 	    3.4425 	   22.0000 	   22.0000 	   49.1882 
    0.3891 	    3.4580 	   22.0000 	   22.0000 	   49.2192 
    0.5264 	    3.4735 	   22.0000 	   22.0000 	   49.2502 
    0.4959 	    3.4905 	   22.0000 	   22.0000 	   49.2842 
    0.3433 	    3.5055 	   22.0000 	   22.0000 	   49.3142 
    0.4501 	    3.5205 	   22.0000 	   22.0000 	   49.3442 
    0.2976 	    3.5380 	   22.0000 	   22.0000 	   49.3792 
    0.4349 	    3.5535 	   22.0000 	   22.0000 	   49.4102 
    0.3128 	    3.5680 	   22.0000 	   22.0000 	   49.4392 
    0.4501 	    3.5845 	   22.0000 	   22.0000 	   49.4722 
    0.3891 	    3.6000 	   22.0000 	   22.0000 	   49.5032 
    0.2060 	    3.6155 	   22.0000 	   22.0000 	   49.5342 
    0.3586 	    3.6325 	   22.0000 	   22.0000 	   49.5682 
    0.3738 	    3.6475 	   22.0000 	   22.0000 	   49.5982 
    0.3738 	    3.6620 	   22.0000 	   22.0000 	   49.6272 
    0.4196 	    3.6775 	   22.0000 	   22.0000 	   49.6582 
    0.3891 	    3.6945 	   22.0000 	   22.0000 	   49.6922 
    0.0687 	    3.7110 	   22.0000 	   22.0000 	   49.7252 
    0.6180 	    3.7265 	   22.0000 	   22.0000 	   49.7562 
    0.4349 	    3.7425 	   22.0000 	   22.0000 	   49.7882 
    0.2213 	    3.7580 	   22.0000 	   22.0000 	   49.8192 
    0.2976 	    3.7735 	   22.0000 	   22.0000 	   49.8502 
    0.1144 	    3.7910 	   22.0000 	   22.0000 	   49.8852 
    0.3738 	    3.8055 	   22.0000 	   22.0000 	   49.9142 
    0.5112 	    3.8205 	   22.0000 	   22.0000 	   49.9442 
    0.4349 	    3.8375 	   22.0000 	   22.0000 	   49.9782 
    0.3586 	    3.8540 	   22.0000 	   22.0000 	   50.0112 
    0.3891 	    3.8690 	   22.0000 	   22.0000 	   50.0412 
    0.4349 	    3.8865 	   22.0000 	   22.0000 	   50.0762 
    0.4501 	    3.9030 	   22.0000 	   22.0000 	   50.1092 
    0.4501 	    3.9185 	   22.0000 	   22.0000 	   50.1403 
    0.3738 	    3.9345 	   22.0000 	   22.0000 	   50.1723 
    0.3433 	    3.9505 	   22.0000 	   22.0000 	   50.2043 
    0.3738 	    3.9660 	   22.0000 	   22.0000 	   50.2353 
    0.1907 	    3.9810 	   22.0000 	   22.0000 	   50.2653 
    0.3738 	    3.9960 	   22.0000 	   22.0000 	   50.2953 
    0.4196 	    4.0110 	   22.0000 	   22.0000 	   50.3253 
    0.3281 	    4.0265 	   22.0000 	   22.0000 	   50.3563 
    0.2670 	    4.0430 	   22.0000 	   22.0000 	   50.3893 
    0.3281 	    4.0585 	   22.0000 	   22.0000 	   50.4203 
    0.2823 	    4.0735 	   22.0000 	   22.0000 	   50.4503 
    0.5112 	    4.0885 	   22.0000 	   22.0000 	   50.4803 
    0.2823 	    4.1035 	   22.0000 	   22.0000 	   50.5103 
    0.3128 	    4.1185 	   22.0000 	   22.0000 	   50.5403 
    0.4807 	    4.1350 	   22.0000 	   22.0000 	   50.5733 
    0.4807 	    4.1510 	   22.0000 	   22.0000 	   50.6053 
   -0.0229 	    4.1655 	   22.0000 	   22.0000 	   50.6343 
    0.3891 	    4.1810 	   22.0000 	   22.0000 	   50.6653 
    0.4349 	    4.1970 	   22.0000 	   22.0000 	   50.6973 
    0.3128 	    4.2120 	   22.0000 	   22.0000 	   50.7273 
    0.5264 	    4.2270 	   22.0000 	   22.0000 	   50.7573 
    0.3128 	    4.2435 	   22.0000 	   22.0000 	   50.7903 
    0.3738 	    4.2595 	   22.0000 	   22.0000 	   50.8223 
    0.3738 	    4.2750 	   22.0000 	   22.0000 	   50.8533 
    0.4349 	    4.2895 	   22.0000 	   22.0000 	   50.8823 
    0.3128 	    4.3045 	   22.0000 	   22.0000 	   50.9123 
    0.3738 	    4.3200 	   22.0000 	   22.0000 	   50.9433 
    0.4959 	    4.3365 	   22.0000 	   22.0000 	   50.9763 
    0.2518 	    4.3515 	   22.0000 	   22.0000 	   51.0063 
    0.4044 	    4.3665 	   22.0000 	   22.0000 	   51.0363 
    0.3891 	    4.3825 	   22.0000 	   22.0000 	   51.0683 
    0.2213 	    4.3980 	   22.0000 	   22.0000 	   51.0993 
    0.3433 	    4.4145 	   22.0000 	   22.0000 	   51.1323 
    0.4959 	    4.4285 	   22.0000 	   22.0000 	   51.1603 
    0.3281 	    4.4465 	   22.0000 	   22.0000 	   51.1963 
    0.3738 	    4.4625 	   22.0000 	   22.0000 	   51.2283 
    0.1602 	    4.4795 	   22.0000 	   22.0000 	   51.2623 
    0.4349 	    4.4950 	   22.0000 	   22.0000 	   51.2933 
    0.2976 	    4.5095 	   22.0000 	   22.0000 	   51.3223 
    0.3128 	    4.5255 	   22.0000 	   22.0000 	   51.3543 
    0.4807 	    4.5430 	   22.0000 	   22.0000 	   51.3893 
    0.2823 	    4.5590 	   22.0000 	   22.0000 	   51.4213 
    0.4349 	    4.5750 	   22.0000 	   22.0000 	   51.4533 
    0.5112 	    4.5895 	   22.0000 	   22.0000 	   51.4823 
    0.4654 	    4.6045 	   22.0000 	   22.0000 	   51.5123 
    0.4196 	    4.6205 	   22.0000 	   22.0000 	   51.5443 
    0.2213 	    4.6380 	   22.0000 	   22.0000 	   51.5793 
    0.5112 	    4.6540 	   22.0000 	   22.0000 	   51.6113 
    0.4349 	    4.6775 	   22.0000 	   22.0000 	   51.6583 
    0.4349 	    4.6915 	   22.0000 	   22.0000 	   51.6863 
    0.3891 	    4.7065 	   22.0000 	   22.0000 	   51.7163 
    0.3586 	    4.7215 	   22.0000 	   22.0000 	   51.7463 
    0.6180 	    4.7380 	   22.0000 	   22.0000 	   51.7793 
    0.4807 	    4.7540 	   22.0000 	   22.0000 	   51.8113 
    0.5112 	    4.7700 	   22.0000 	   22.0000 	   51.8433 
    0.3738 	    4.7835 	   22.0000 	   22.0000 	   51.8703 
    0.2823 	    4.7990 	   22.0000 	   22.0000 	   51.9014 
    0.4654 	    4.8150 	   22.0000 	   22.0000 	   51.9334 
    0.3738 	    4.8310 	   22.0000 	   22.0000 	   51.9654 
    0.1450 	    4.8475 	   22.0000 	   22.0000 	   51.9984 
    0.3128 	    4.8630 	   22.0000 	   22.0000 	   52.0294 
    0.4196 	    4.8795 	   22.0000 	   22.0000 	   52.0624 
    0.1755 	    4.8950 	   22.0000 	   22.0000 	   52.0934 
    0.4501 	    4.9110 	   22.0000 	   22.0000 	   52.1254 
    0.3128 	    4.9255 	   22.0000 	   22.0000 	   52.1544 
    0.3738 	    4.9425 	   22.0000 	   22.0000 	   52.1884 
    0.4654 	    4.9580 	   22.0000 	   22.0000 	   52.2194 
    0.4654 	    4.9725 	   22.0000 	   22.0000 	   52.2484 
    0.4807 	    4.9890 	   22.0000 	   22.0000 	   52.2814 
    0.3738 	    5.0040 	   22.0000 	   22.0000 	   52.3114 
    0.3891 	    5.0195 	   22.0000 	   22.0000 	   52.3424 
    0.4196 	    5.0355 	   22.0000 	   22.0000 	   52.3744 
    0.3433 	    5.0515 	   22.0000 	   22.0000 	   52.4064 
    0.4044 	    5.0665 	   22.0000 	   22.0000 	   52.4364 
    0.3281 	    5.0810 	   22.0000 	   22.0000 	   52.4654 
    0.4654 	    5.0965 	   22.0000 	   22.0000 	   52.4964 
    0.4196 	    5.1125 	   22.0000 	   22.0000 	   52.5284 
    0.3738 	    5.1285 	   22.0000 	   22.0000 	   52.5604 
    0.3738 	    5.1455 	   22.0000 	   22.0000 	   52.5944 
    0.4349 	    5.1610 	   22.0000 	   22.0000 	   52.6254 
    0.3891 	    5.1770 	   22.0000 	   22.0000 	   52.6574 
    0.4654 	    5.1930 	   22.0000 	   22.0000 	   52.6894 
    0.3738 	    5.2080 	   22.0000 	   22.0000 	   52.7194 
    0.5112 	    5.2235 	   22.0000 	   22.0000 	   52.7504 
    0.4044 	    5.2415 	   22.0000 	   22.0000 	   52.7864 
    0.3586 	    5.2570 	   22.0000 	   22.0000 	   52.8174 
    0.3586 	    5.2730 	   22.0000 	   22.0000 	   52.8494 
    0.4501 	    5.2900 	   22.0000 	   22.0000 	   52.8834 
    0.5112 	    5.3050 	   22.0000 	   22.0000 	   52.9134 
    0.2976 	    5.3210 	   22.0000 	   22.0000 	   52.9454 
    0.3586 	    5.3385 	   22.0000 	   22.0000 	   52.9804 
    0.3586 	    5.3540 	   22.0000 	   22.0000 	   53.0114 
    0.3586 	    5.3705 	   22.0000 	   22.0000 	   53.0444 
    0.4196 	    5.3860 	   22.0000 	   22.0000 	   53.0754 
    0.4501 	    5.4020 	   22.0000 	   22.0000 	   53.1074 
    0.2365 	    5.4185 	   22.0000 	   22.0000 	   53.1404 
    0.5112 	    5.4370 	   22.0000 	   22.0000 	   53.1774 
    0.2670 	    5.4535 	   22.0000 	   22.0000 	   53.2104 
    0.5722 	    5.4695 	   22.0000 	   22.0000 	   53.2424 
    0.4196 	    5.4850 	   22.0000 	   22.0000 	   53.2734 
    0.3128 	    5.5010 	   22.0000 	   22.0000 	   53.3054 
    0.2823 	    5.5165 	   22.0000 	   22.0000 	   53.3364 
    0.4196 	    5.5340 	   22.0000 	   22.0000 	   53.3714 
    0.5112 	    5.5490 	   22.0000 	   22.0000 	   53.4014 
    0.3738 	    5.5645 	   22.0000 	   22.0000 	   53.4324 
    0.5112 	    5.5800 	   22.0000 	   22.0000 	   53.4634 
    0.3128 	    5.5960 	   22.0000 	   22.0000 	   53.4954 
    0.4501 	    5.6125 	   22.0000 	   22.0000 	   53.5284 
    0.4044 	    5.6275 	   22.0000 	   22.0000 	   53.5584 
    0.4196 	    5.6455 	   22.0000 	   22.0000 	   53.5944 
    0.3433 	    5.6615 	   22.0000 	   22.0000 	   53.6264 
    0.4044 	    5.6775 	   22.0000 	   22.0000 	   53.6585 
    0.4959 	    5.6925 	   22.0000 	   22.0000 	   53.6885 
    0.4501 	    5.7085 	   22.0000 	   22.0000 	   53.7205 
    0.5417 	    5.7240 	   22.0000 	   22.0000 	   53.7515 
    0.3738 	    5.7410 	   22.0000 	   22.0000 	   53.7855 
    0.3738 	    5.7565 	   22.0000 	   22.0000 	   53.8165 
    0.4959 	    5.7725 	   22.0000 	   22.0000 	   53.8485 
    0.2976 	    5.7885 	   22.0000 	   22.0000 	   53.8805 
    0.3433 	    5.8045 	   22.0000 	   22.0000 	   53.9125 
    0.5264 	    5.8205 	   22.0000 	   22.0000 	   53.9445 
    0.2823 	    5.8380 	   22.0000 	   22.0000 	   53.9795 
    0.3891 	    5.8540 	   22.0000 	   22.0000 	   54.0115 
    0.2060 	    5.8685 	   22.0000 	   22.0000 	   54.0405 
    0.4349 	    5.8855 	   22.0000 	   22.0000 	   54.0745 
    0.4501 	    5.9010 	   22.0000 	   22.0000 	   54.1055 
    0.4044 	    5.9170 	   22.0000 	   22.0000 	   54.1375 
    0.4959 	    5.9330 	   22.0000 	   22.0000 	   54.1695 
    0.4349 	    5.9495 	   22.0000 	   22.0000 	   54.2025 
    0.4044 	    5.9655 	   22.0000 	   22.0000 	   54.2345 
    0.3891 	    5.9810 	   22.0000 	   22.0000 	   54.2655 
    0.4044 	    5.9970 	   22.0000 	   22.0000 	   54.2975 
    0.4196 	    6.0130 	   22.0000 	   22.0000 	   54.3295 
    0.5112 	    6.0270 	   22.0000 	   22.0000 	   54.3575 
    0.5570 	    6.0430 	   22.0000 	   22.0000 	   54.3895 
    0.3891 	    6.0595 	   22.0000 	   22.0000 	   54.4225 
    0.5112 	    6.0755 	   22.0000 	   22.0000 	   54.4545 
    0.4501 	    6.0915 	   22.0000 	   22.0000 	   54.4865 
    0.4501 	    6.1065 	   22.0000 	   22.0000 	   54.5165 
    0.4044 	    6.1220 	   22.0000 	   22.0000 	   54.5475 
    0.4044 	    6.1395 	   22.0000 	   22.0000 	   54.5825 
    0.5112 	    6.1555 	   22.0000 	   22.0000 	   54.6145 
    0.3281 	    6.1715 	   22.0000 	   22.0000 	   54.6465 
    0.4196 	    6.1880 	   22.0000 	   22.0000 	   54.6795 
    0.3891 	    6.2030 	   22.0000 	   22.0000 	   54.7095 
    0.4196 	    6.2195 	   22.0000 	   22.0000 	   54.7425 
    0.4044 	    6.2360 	   22.0000 	   22.0000 	   54.7755 
    0.2976 	    6.2525 	   22.0000 	   22.0000 	   54.8085 
    0.5264 	    6.2685 	   22.0000 	   22.0000 	   54.8405 
    0.2976 	    6.2835 	   22.0000 	   22.0000 	   54.8705 
    0.5112 	    6.2995 	   22.0000 	   22.0000 	   54.9025 
    0.4654 	    6.3155 	   22.0000 	   22.0000 	   54.9345 
    0.4807 	    6.3315 	   22.0000 	   22.0000 	   54.9665 
    0.4349 	    6.3475 	   22.0000 	   22.0000 	   54.9985 
    0.1907 	    6.3635 	   22.0000 	   22.0000 	   55.0305 
    0.5264 	    6.3805 	   22.0000 	   22.0000 	   55.0645 
    0.4349 	    6.3970 	   22.0000 	   22.0000 	   55.0975 
    0.3433 	    6.4120 	   22.0000 	   22.0000 	   55.1275 
    0.3586 	    6.4290 	   22.0000 	   22.0000 	   55.1615 
    0.1144 	    6.4465 	   22.0000 	   22.0000 	   55.1965 
    0.3586 	    6.4635 	   22.0000 	   22.0000 	   55.2305 
    0.4807 	    6.4800 	   22.0000 	   22.0000 	   55.2635 
    0.3891 	    6.4965 	   22.0000 	   22.0000 	   55.2965 
    0.3586 	    6.5130 	   22.0000 	   22.0000 	   55.3285 
    0.5112 	    6.5275 	   22.0000 	   22.0000 	   55.3586 
    0.5875 	    6.5435 	   22.0000 	   22.0000 	   55.3906 
    0.3738 	    6.5595 	   22.0000 	   22.0000 	   55.4226 
    0.3891 	    6.5750 	   22.0000 	   22.0000 	   55.4536 
    0.4501 	    6.5910 	   22.0000 	   22.0000 	   55.4856 
    0.4349 	    6.6065 	   22.0000 	   22.0000 	   55.5166 
    0.5112 	    6.6225 	   22.0000 	   22.0000 	   55.5486 
    0.4501 	    6.6400 	   22.0000 	   22.0000 	   55.5836 
    0.5722 	    6.6565 	   22.0000 	   22.0000 	   55.6166 
    0.5264 	    6.6775 	   22.0000 	   22.0000 	   55.6586 
    0.4959 	    6.6945 	   22.0000 	   22.0000 	   55.6926 
    0.4959 	    6.7115 	   22.0000 	   22.0000 	   55.7266 
    0.1602 	    6.7275 	   22.0000 	   22.0000 	   55.7586 
    0.4654 	    6.7435 	   22.0000 	   22.0000 	   55.7906 
    0.3433 	    6.7595 	   22.0000 	   22.0000 	   55.8226 
    0.5264 	    6.7755 	   22.0000 	   22.0000 	   55.8546 
    0.2976 	    6.7925 	   22.0000 	   22.0000 	   55.8886 
    0.4044 	    6.8080 	   22.0000 	   22.0000 	   55.9196 
    0.5264 	    6.8240 	   22.0000 	   22.0000 	   55.9516 
    0.4349 	    6.8420 	   22.0000 	   22.0000 	   55.9876 
    0.5112 	    6.8580 	   22.0000 	   22.0000 	   56.0196 
    0.2976 	    6.8740 	   22.0000 	   22.0000 	   56.0516 
    0.4501 	    6.8900 	   22.0000 	   22.0000 	   56.0836 
    0.6027 	    6.9065 	   22.0000 	   22.0000 	   56.1166 
    0.3281 	    6.9230 	   22.0000 	   22.0000 	   56.1496 
    0.5417 	    6.9390 	   22.0000 	   22.0000 	   56.1816 
    0.4807 	    6.9550 	   22.0000 	   22.0000 	   56.2136 
    0.6180 	    6.9715 	   22.0000 	   22.0000 	   56.2466 
    0.3433 	    6.9870 	   22.0000 	   22.0000 	   56.2776 
    0.4196 	    7.0030 	   22.0000 	   22.0000 	   56.3096 
    0.3738 	    7.0190 	   22.0000 	   22.0000 	   56.3416 
    0.5570 	    7.0365 	   22.0000 	   22.0000 	   56.3766 
    0.4501 	    7.0540 	   22.0000 	   22.0000 	   56.4116 
    0.5264 	    7.0700 	   22.0000 	   22.0000 	   56.4436 
    0.4349 	    7.0865 	   22.0000 	   22.0000 	   56.4766 
    0.1297 	    7.1025 	   22.0000 	   22.0000 	   56.5076 
    0.5722 	    7.1175 	   22.0000 	   22.0000 	   56.5386 
    0.5112 	    7.1345 	   22.0000 	   22.0000 	   56.5726 
    0.5264 	    7.1505 	   22.0000 	   22.0000 	   56.6046 
    0.4349 	    7.1660 	   22.0000 	   22.0000 	   56.6356 
    0.3891 	    7.1825 	   22.0000 	   22.0000 	   56.6686 
    0.4044 	    7.1990 	   22.0000 	   22.0000 	   56.7016 
    0.5722 	    7.2150 	   22.0000 	   22.0000 	   56.7336 
    0.3586 	    7.2315 	   22.0000 	   22.0000 	   56.7666 
    0.4349 	    7.2495 	   22.0000 	   22.0000 	   56.8026 
    0.5722 	    7.2650 	   22.0000 	   22.0000 	   56.8336 
    0.4501 	    7.2820 	   22.0000 	   22.0000 	   56.8676 
    0.2518 	    7.2980 	   22.0000 	   22.0000 	   56.8996 
    0.4349 	    7.3135 	   22.0000 	   22.0000 	   56.9306 
    0.5264 	    7.3300 	   22.0000 	   22.0000 	   56.9636 
    0.5112 	    7.3470 	   22.0000 	   22.0000 	   56.9976 
    0.4654 	    7.3635 	   22.0000 	   22.0000 	   57.0306 
    0.3586 	    7.3795 	   22.0000 	   22.0000 	   57.0626 
    0.4196 	    7.3965 	   22.0000 	   22.0000 	   57.0966 
    0.1297 	    7.4125 	   22.0000 	   22.0000 	   57.1287 
    0.3891 	    7.4285 	   22.0000 	   22.0000 	   57.1607 
    0.4196 	    7.4465 	   22.0000 	   22.0000 	   57.1967 
    0.4196 	    7.4620 	   22.0000 	   22.0000 	   57.2277 
    0.5570 	    7.4775 	   22.0000 	   22.0000 	   57.2587 
    0.3891 	    7.4935 	   22.0000 	   22.0000 	   57.2907 
    0.3891 	    7.5100 	   22.0000 	   22.0000 	   57.3227 
    0.4349 	    7.5255 	   22.0000 	   22.0000 	   57.3547 
    0.4349 	    7.5415 	   22.0000 	   22.0000 	   57.3867 
    0.4349 	    7.5575 	   22.0000 	   22.0000 	   57.4187 
    0.4654 	    7.5740 	   22.0000 	   22.0000 	   57.4517 
    0.4349 	    7.5905 	   22.0000 	   22.0000 	   57.4847 
    0.3891 	    7.6065 	   22.0000 	   22.0000 	   57.5167 
    0.3738 	    7.6230 	   22.0000 	   22.0000 	   57.5497 
    0.4654 	    7.6415 	   22.0000 	   22.0000 	   57.5867 
    0.4196 	    7.6580 	   22.0000 	   22.0000 	   57.6197 
    0.4654 	    7.6775 	   22.0000 	   22.0000 	   57.6587 
    0.4807 	    7.6945 	   22.0000 	   22.0000 	   57.6927 
    0.4959 	    7.7120 	   22.0000 	   22.0000 	   57.7277 
    0.4349 	    7.7280 	   22.0000 	   22.0000 	   57.7597 
    0.4044 	    7.7435 	   22.0000 	   22.0000 	   57.7907 
    0.4349 	    7.7600 	   22.0000 	   22.0000 	   57.8237 
    0.5264 	    7.7750 	   22.0000 	   22.0000 	   57.8537 
    0.4349 	    7.7900 	   22.0000 	   22.0000 	   57.8837 
    0.4501 	    7.8035 	   22.0000 	   22.0000 	   57.9107 
    0.5570 	    7.8205 	   22.0000 	   22.0000 	   57.9447 
    0.4959 	    7.8375 	   22.0000 	   22.0000 	   57.9787 
    0.5417 	    7.8540 	   22.0000 	   22.0000 	   58.0117 
    0.3891 	    7.8695 	   22.0000 	   22.0000 	   58.0427 
    0.4807 	    7.8865 	   22.0000 	   22.0000 	   58.0767 
    0.4501 	    7.9035 	   22.0000 	   22.0000 	   58.1107 
    0.4349 	    7.9210 	   22.0000 	   22.0000 	   58.1457 
    0.4501 	    7.9385 	   22.0000 	   22.0000 	   58.1807 
    0.4196 	    7.9555 	   22.0000 	   22.0000 	   58.2147 
    0.4654 	    7.9725 	   22.0000 	   22.0000 	   58.2487 
    0.5112 	    7.9880 	   22.0000 	   22.0000 	   58.2797 
    0.4654 	    8.0020 	   22.0000 	   22.0000 	   58.3077 
    0.4959 	    8.0170 	   22.0000 	   22.0000 	   58.3377 
    0.3891 	    8.0345 	   22.0000 	   22.0000 	   58.3727 
    0.4654 	    8.0510 	   22.0000 	   22.0000 	   58.4057 
    0.4959 	    8.0680 	   22.0000 	   22.0000 	   58.4397 
    0.5570 	    8.0845 	   22.0000 	   22.0000 	   58.4727 
    0.3433 	    8.1010 	   22.0000 	   22.0000 	   58.5057 
    0.5722 	    8.1175 	   22.0000 	   22.0000 	   58.5387 
    0.4654 	    8.1345 	   22.0000 	   22.0000 	   58.5727 
    0.4349 	    8.1510 	   22.0000 	   22.0000 	   58.6057 
    0.5875 	    8.1675 	   22.0000 	   22.0000 	   58.6377 
    0.3891 	    8.1840 	   22.0000 	   22.0000 	   58.6707 
    0.5112 	    8.2000 	   22.0000 	   22.0000 	   58.7027 
    0.4501 	    8.2170 	   22.0000 	   22.0000 	   58.7367 
    0.3891 	    8.2345 	   22.0000 	   22.0000 	   58.7717 
    0.6638 	    8.2505 	   22.0000 	   22.0000 	   58.8037 
    0.4349 	    8.2655 	   22.0000 	   22.0000 	   58.8337 
    0.5112 	    8.2810 	   22.0000 	   22.0000 	   58.8647 
    0.6027 	    8.2960 	   22.0000 	   22.0000 	   58.8948 
    0.4654 	    8.3110 	   22.0000 	   22.0000 	   58.9248 
    0.2060 	    8.3250 	   22.0000 	   22.0000 	   58.9528 
    0.4959 	    8.3395 	   22.0000 	   22.0000 	   58.9818 
    0.3738 	    8.3545 	   22.0000 	   22.0000 	   59.0118 
    0.4654 	    8.3710 	   22.0000 	   22.0000 	   59.0448 
    0.2976 	    8.3875 	   22.0000 	   22.0000 	   59.0778 
    0.5112 	    8.4045 	   22.0000 	   22.0000 	   59.1118 
    0.4196 	    8.4205 	   22.0000 	   22.0000 	   59.1438 
    0.4959 	    8.4375 	   22.0000 	   22.0000 	   59.1778 
    0.4501 	    8.4550 	   22.0000 	   22.0000 	   59.2128 
    0.4959 	    8.4715 	   22.0000 	   22.0000 	   59.2458 
    0.1907 	    8.4880 	   22.0000 	   22.0000 	   59.2788 
    0.4196 	    8.5055 	   22.0000 	   22.0000 	   59.3138 
    0.5417 	    8.5215 	   22.0000 	   22.0000 	   59.3458 
    0.4044 	    8.5390 	   22.0000 	   22.0000 	   59.3808 
    0.5264 	    8.5550 	   22.0000 	   22.0000 	   59.4128 
    0.5875 	    8.5720 	   22.0000 	   22.0000 	   59.4468 
    0.3738 	    8.5885 	   22.0000 	   22.0000 	   59.4798 
    0.4349 	    8.6050 	   22.0000 	   22.0000 	   59.5128 
    0.4654 	    8.6220 	   22.0000 	   22.0000 	   59.5468 
    0.4501 	    8.6405 	   22.0000 	   22.0000 	   59.5838 
    0.4349 	    8.6580 	   22.0000 	   22.0000 	   59.6188 
    0.3586 	    8.6745 	   22.0000 	   22.0000 	   59.6518 
    0.3738 	    8.6920 	   22.0000 	   22.0000 	   59.6868 
    0.4654 	    8.7085 	   22.0000 	   22.0000 	   59.7198 
    0.5112 	    8.7245 	   22.0000 	   22.0000 	   59.7518 
    0.5112 	    8.7420 	   22.0000 	   22.0000 	   59.7868 
    0.4654 	    8.7580 	   22.0000 	   22.0000 	   59.8188 
    0.3738 	    8.7750 	   22.0000 	   22.0000 	   59.8528 
    0.5112 	    8.7915 	   22.0000 	   22.0000 	   59.8858 
    0.5264 	    8.8080 	   22.0000 	   22.0000 	   59.9188 
    0.5112 	    8.8240 	   22.0000 	   22.0000 	   59.9508 
    0.5570 	    8.8425 	   22.0000 	   22.0000 	   59.9878 
    0.5417 	    8.8585 	   22.0000 	   23.0000 	    0.0198 
    0.3433 	    8.8745 	   22.0000 	   23.0000 	    0.0518 
    0.3738 	    8.8915 	   22.0000 	   23.0000 	    0.0858 
    0.3281 	    8.9090 	   22.0000 	   23.0000 	    0.1208 
    0.4959 	    8.9255 	   22.0000 	   23.0000 	    0.1538 
    0.5875 	    8.9415 	   22.0000 	   23.0000 	    0.1858 
    0.4044 	    8.9590 	   22.0000 	   23.0000 	    0.2208 
    0.4501 	    8.9770 	   22.0000 	   23.0000 	    0.2568 
    0.4501 	    8.9935 	   22.0000 	   23.0000 	    0.2898 
    0.5570 	    9.0100 	   22.0000 	   23.0000 	    0.3228 
    0.4654 	    9.0265 	   22.0000 	   23.0000 	    0.3558 
    0.5112 	    9.0445 	   22.0000 	   23.0000 	    0.3918 
    0.4044 	    9.0610 	   22.0000 	   23.0000 	    0.4248 
    0.4349 	    9.0770 	   22.0000 	   23.0000 	    0.4568 
    0.4654 	    9.0925 	   22.0000 	   23.0000 	    0.4878 
    0.5112 	    9.1090 	   22.0000 	   23.0000 	    0.5208 
    0.4349 	    9.1260 	   22.0000 	   23.0000 	    0.5548 
    0.4959 	    9.1420 	   22.0000 	   23.0000 	    0.5868 
    0.6027 	    9.1590 	   22.0000 	   23.0000 	    0.6209 
    0.4807 	    9.1755 	   22.0000 	   23.0000 	    0.6539 
    0.6332 	    9.1925 	   22.0000 	   23.0000 	    0.6879 
    0.5722 	    9.2085 	   22.0000 	   23.0000 	    0.7199 
    0.5570 	    9.2245 	   22.0000 	   23.0000 	    0.7519 
    0.4044 	    9.2415 	   22.0000 	   23.0000 	    0.7859 
    0.3281 	    9.2560 	   22.0000 	   23.0000 	    0.8149 
    0.4654 	    9.2710 	   22.0000 	   23.0000 	    0.8449 
    0.4654 	    9.2860 	   22.0000 	   23.0000 	    0.8749 
    0.3738 	    9.3010 	   22.0000 	   23.0000 	    0.9049 
    0.4501 	    9.3155 	   22.0000 	   23.0000 	    0.9339 
    0.6180 	    9.3295 	   22.0000 	   23.0000 	    0.9619 
    0.4501 	    9.3445 	   22.0000 	   23.0000 	    0.9919 
    0.3738 	    9.3595 	   22.0000 	   23.0000 	    1.0219 
    0.6485 	    9.3740 	   22.0000 	   23.0000 	    1.0509 
    0.5570 	    9.3890 	   22.0000 	   23.0000 	    1.0809 
    0.5722 	    9.4050 	   22.0000 	   23.0000 	    1.1129 
    0.3586 	    9.4210 	   22.0000 	   23.0000 	    1.1449 
    0.3738 	    9.4395 	   22.0000 	   23.0000 	    1.1819 
    0.4349 	    9.4565 	   22.0000 	   23.0000 	    1.2159 
    0.4044 	    9.4735 	   22.0000 	   23.0000 	    1.2499 
    0.4196 	    9.4895 	   22.0000 	   23.0000 	    1.2819 
    0.4501 	    9.5060 	   22.0000 	   23.0000 	    1.3149 
    0.6790 	    9.5225 	   22.0000 	   23.0000 	    1.3479 
    0.4959 	    9.5395 	   22.0000 	   23.0000 	    1.3819 
    0.5417 	    9.5555 	   22.0000 	   23.0000 	    1.4139 
    0.5417 	    9.5730 	   22.0000 	   23.0000 	    1.4489 
    0.5264 	    9.5895 	   22.0000 	   23.0000 	    1.4819 
    0.5112 	    9.6070 	   22.0000 	   23.0000 	    1.5169 
    0.5722 	    9.6230 	   22.0000 	   23.0000 	    1.5489 
    0.5417 	    9.6415 	   22.0000 	   23.0000 	    1.5859 
    0.4959 	    9.6585 	   22.0000 	   23.0000 	    1.6199 
    0.4807 	    9.6780 	   22.0000 	   23.0000 	    1.6589 
    0.7095 	    9.6950 	   22.0000 	   23.0000 	    1.6929 
    0.4044 	    9.7130 	   22.0000 	   23.0000 	    1.7279 
    0.4654 	    9.7310 	   22.0000 	   23.0000 	    1.7649 
    0.4654 	    9.7475 	   22.0000 	   23.0000 	    1.7979 
    0.5264 	    9.7640 	   22.0000 	   23.0000 	    1.8309 
    0.4501 	    9.7810 	   22.0000 	   23.0000 	    1.8649 
    0.3433 	    9.7970 	   22.0000 	   23.0000 	    1.8969 
    0.3281 	    9.8140 	   22.0000 	   23.0000 	    1.9309 
    0.5417 	    9.8310 	   22.0000 	   23.0000 	    1.9649 
    0.6790 	    9.8495 	   22.0000 	   23.0000 	    2.0019 
    0.4196 	    9.8665 	   22.0000 	   23.0000 	    2.0359 
    0.5264 	    9.8840 	   22.0000 	   23.0000 	    2.0709 
    0.5570 	    9.9010 	   22.0000 	   23.0000 	    2.1049 
    0.4044 	    9.9185 	   22.0000 	   23.0000 	    2.1399 
    0.5417 	    9.9360 	   22.0000 	   23.0000 	    2.1749 
    0.5112 	    9.9525 	   22.0000 	   23.0000 	    2.2079 
    0.4654 	    9.9695 	   22.0000 	   23.0000 	    2.2419 
    0.4959 	    9.9860 	   22.0000 	   23.0000 	    2.2749 
    0.6180 	   10.0025 	   22.0000 	   23.0000 	    2.3079 
    0.5570 	   10.0185 	   22.0000 	   23.0000 	    2.3400 
    0.4959 	   10.0345 	   22.0000 	   23.0000 	    2.3720 
    0.3281 	   10.0490 	   22.0000 	   23.0000 	    2.4010 
    0.4044 	   10.0640 	   22.0000 	   23.0000 	    2.4310 
    0.4501 	   10.0785 	   22.0000 	   23.0000 	    2.4600 
    0.5417 	   10.0930 	   22.0000 	   23.0000 	    2.4890 
    0.5722 	   10.1080 	   22.0000 	   23.0000 	    2.5190 
    0.6027 	   10.1235 	   22.0000 	   23.0000 	    2.5500 
    0.5722 	   10.1380 	   22.0000 	   23.0000 	    2.5790 
    0.7095 	   10.1545 	   22.0000 	   23.0000 	    2.6120 
    0.5112 	   10.1710 	   22.0000 	   23.0000 	    2.6450 
    0.4501 	   10.1890 	   22.0000 	   23.0000 	    2.6810 
    0.5417 	   10.2050 	   22.0000 	   23.0000 	    2.7130 
    0.5264 	   10.2200 	   22.0000 	   23.0000 	    2.7430 
    0.5112 	   10.2350 	   22.0000 	   23.0000 	    2.7730 
    0.4959 	   10.2500 	   22.0000 	   23.0000 	    2.8030 
    0.6943 	   10.2655 	   22.0000 	   23.0000 	    2.8340 
    0.5722 	   10.2815 	   22.0000 	   23.0000 	    2.8660 
    0.5264 	   10.2960 	   22.0000 	   23.0000 	    2.8950 
    0.5417 	   10.3120 	   22.0000 	   23.0000 	    2.9270 
    0.4044 	   10.3290 	   22.0000 	   23.0000 	    2.9610 
    0.5264 	   10.3460 	   22.0000 	   23.0000 	    2.9950 
    0.4654 	   10.3620 	   22.0000 	   23.0000 	    3.0270 
    0.4959 	   10.3785 	   22.0000 	   23.0000 	    3.0600 
    0.5417 	   10.3955 	   22.0000 	   23.0000 	    3.0940 
    0.5417 	   10.4130 	   22.0000 	   23.0000 	    3.1290 
    0.6180 	   10.4290 	   22.0000 	   23.0000 	    3.1610 
    0.3738 	   10.4465 	   22.0000 	   23.0000 	    3.1960 
    0.4349 	   10.4630 	   22.0000 	   23.0000 	    3.2290 
    0.4807 	   10.4800 	   22.0000 	   23.0000 	    3.2630 
    0.4349 	   10.4975 	   22.0000 	   23.0000 	    3.2980 
    0.5722 	   10.5145 	   22.0000 	   23.0000 	    3.3320 
    0.5875 	   10.5315 	   22.0000 	   23.0000 	    3.3660 
    0.4349 	   10.5495 	   22.0000 	   23.0000 	    3.4020 
    0.4959 	   10.5660 	   22.0000 	   23.0000 	    3.4350 
    0.4959 	   10.5830 	   22.0000 	   23.0000 	    3.4690 
    0.5875 	   10.6005 	   22.0000 	   23.0000 	    3.5040 
    0.6180 	   10.6180 	   22.0000 	   23.0000 	    3.5390 
    0.5112 	   10.6360 	   22.0000 	   23.0000 	    3.5750 
    0.4807 	   10.6535 	   22.0000 	   23.0000 	    3.6100 
    0.6180 	   10.6775 	   22.0000 	   23.0000 	    3.6580 
    0.5875 	   10.6930 	   22.0000 	   23.0000 	    3.6890 
    0.4807 	   10.7095 	   22.0000 	   23.0000 	    3.7220 
    0.5112 	   10.7265 	   22.0000 	   23.0000 	    3.7560 
    0.5112 	   10.7435 	   22.0000 	   23.0000 	    3.7900 
    0.5570 	   10.7600 	   22.0000 	   23.0000 	    3.8230 
    0.5570 	   10.7775 	   22.0000 	   23.0000 	    3.8580 
    0.6180 	   10.7940 	   22.0000 	   23.0000 	    3.8910 
    0.5570 	   10.8110 	   22.0000 	   23.0000 	    3.9250 
    0.5570 	   10.8275 	   22.0000 	   23.0000 	    3.9580 
    0.5570 	   10.8440 	   22.0000 	   23.0000 	    3.9910 
    0.6180 	   10.8580 	   22.0000 	   23.0000 	    4.0190 
    0.6332 	   10.8735 	   22.0000 	   23.0000 	    4.0500 
    0.5417 	   10.8875 	   22.0000 	   23.0000 	    4.0780 
    0.6180 	   10.9030 	   22.0000 	   23.0000 	    4.1091 
    0.4196 	   10.9190 	   22.0000 	   23.0000 	    4.1411 
    0.5570 	   10.9360 	   22.0000 	   23.0000 	    4.1751 
    0.4044 	   10.9530 	   22.0000 	   23.0000 	    4.2091 
    0.6180 	   10.9695 	   22.0000 	   23.0000 	    4.2411 
    0.2060 	   10.9860 	   22.0000 	   23.0000 	    4.2751 
    0.4501 	   11.0025 	   22.0000 	   23.0000 	    4.3081 
    0.5112 	   11.0195 	   22.0000 	   23.0000 	    4.3421 
    0.6943 	   11.0380 	   22.0000 	   23.0000 	    4.3791 
    0.4959 	   11.0530 	   22.0000 	   23.0000 	    4.4091 
    0.4349 	   11.0680 	   22.0000 	   23.0000 	    4.4381 
    0.5417 	   11.0830 	   22.0000 	   23.0000 	    4.4691 
    0.6027 	   11.0980 	   22.0000 	   23.0000 	    4.4991 
    0.4654 	   11.1130 	   22.0000 	   23.0000 	    4.5291 
    0.4959 	   11.1285 	   22.0000 	   23.0000 	    4.5601 
    0.4959 	   11.1435 	   22.0000 	   23.0000 	    4.5901 
    0.5264 	   11.1585 	   22.0000 	   23.0000 	    4.6201 
    0.3738 	   11.1735 	   22.0000 	   23.0000 	    4.6501 
    0.4959 	   11.1885 	   22.0000 	   23.0000 	    4.6801 
    0.4044 	   11.2035 	   22.0000 	   23.0000 	    4.7101 
    0.4196 	   11.2195 	   22.0000 	   23.0000 	    4.7421 
    0.6790 	   11.2385 	   22.0000 	   23.0000 	    4.7801 
    0.5112 	   11.2555 	   22.0000 	   23.0000 	    4.8141 
    0.4807 	   11.2710 	   22.0000 	   23.0000 	    4.8451 
    0.5722 	   11.2860 	   22.0000 	   23.0000 	    4.8751 
    0.3128 	   11.3005 	   22.0000 	   23.0000 	    4.9041 
    0.6332 	   11.3160 	   22.0000 	   23.0000 	    4.9341 
    0.1297 	   11.3310 	   22.0000 	   23.0000 	    4.9651 
    0.5112 	   11.3460 	   22.0000 	   23.0000 	    4.9951 
    0.4959 	   11.3610 	   22.0000 	   23.0000 	    5.0251 
    0.6943 	   11.3760 	   22.0000 	   23.0000 	    5.0551 
    0.6027 	   11.3910 	   22.0000 	   23.0000 	    5.0851 
    0.5264 	   11.4060 	   22.0000 	   23.0000 	    5.1151 
    0.5570 	   11.4215 	   22.0000 	   23.0000 	    5.1461 
    0.4349 	   11.4385 	   22.0000 	   23.0000 	    5.1801 
    0.6180 	   11.4540 	   22.0000 	   23.0000 	    5.2111 
    0.6790 	   11.4690 	   22.0000 	   23.0000 	    5.2411 
    0.5264 	   11.4835 	   22.0000 	   23.0000 	    5.2701 
    0.5112 	   11.5005 	   22.0000 	   23.0000 	    5.3041 
    0.5264 	   11.5175 	   22.0000 	   23.0000 	    5.3381 
    0.4501 	   11.5350 	   22.0000 	   23.0000 	    5.3731 
    0.5570 	   11.5520 	   22.0000 	   23.0000 	    5.4071 
    0.4349 	   11.5680 	   22.0000 	   23.0000 	    5.4391 
    0.4654 	   11.5865 	   22.0000 	   23.0000 	    5.4761 
    0.5264 	   11.6035 	   22.0000 	   23.0000 	    5.5101 
    0.4807 	   11.6200 	   22.0000 	   23.0000 	    5.5431 
    0.4501 	   11.6395 	   22.0000 	   23.0000 	    5.5821 
    0.5264 	   11.6570 	   22.0000 	   23.0000 	    5.6171 
    0.7095 	   11.6775 	   22.0000 	   23.0000 	    5.6581 
    0.6485 	   11.6950 	   22.0000 	   23.0000 	    5.6931 
    0.6180 	   11.7130 	   22.0000 	   23.0000 	    5.7291 
    0.5570 	   11.7310 	   22.0000 	   23.0000 	    5.7651 
    0.1144 	   11.7485 	   22.0000 	   23.0000 	    5.8001 
    0.5722 	   11.7665 	   22.0000 	   23.0000 	    5.8361 
    0.4501 	   11.7830 	   22.0000 	   23.0000 	    5.8692 
    0.6027 	   11.8010 	   22.0000 	   23.0000 	    5.9052 
    0.5112 	   11.8180 	   22.0000 	   23.0000 	    5.9392 
    0.2060 	   11.8375 	   22.0000 	   23.0000 	    5.9782 
    0.5722 	   11.8545 	   22.0000 	   23.0000 	    6.0122 
    0.4501 	   11.8725 	   22.0000 	   23.0000 	    6.0482 
    0.6027 	   11.8895 	   22.0000 	   23.0000 	    6.0822 
    0.5112 	   11.9065 	   22.0000 	   23.0000 	    6.1162 
    0.5112 	   11.9240 	   22.0000 	   23.0000 	    6.1512 
    0.4654 	   11.9405 	   22.0000 	   23.0000 	    6.1842 
    0.5417 	   11.9585 	   22.0000 	   23.0000 	    6.2202 
    0.4654 	   11.9765 	   22.0000 	   23.0000 	    6.2562 
    0.5264 	   11.9930 	   22.0000 	   23.0000 	    6.2892 
    0.6180 	   12.0100 	   22.0000 	   23.0000 	    6.3232 
    0.4959 	   12.0275 	   22.0000 	   23.0000 	    6.3582 
    0.7706 	   12.0485 	   22.0000 	   23.0000 	    6.4002 
    0.4654 	   12.0660 	   22.0000 	   23.0000 	    6.4352 
    0.3433 	   12.0835 	   22.0000 	   23.0000 	    6.4702 
    0.2518 	   12.1010 	   22.0000 	   23.0000 	    6.5052 
    0.5570 	   12.1175 	   22.0000 	   23.0000 	    6.5382 
    0.2823 	   12.1345 	   22.0000 	   23.0000 	    6.5722 
    0.4807 	   12.1520 	   22.0000 	   23.0000 	    6.6072 
    0.5264 	   12.1695 	   22.0000 	   23.0000 	    6.6422 
    0.6180 	   12.1875 	   22.0000 	   23.0000 	    6.6782 
    0.4959 	   12.2045 	   22.0000 	   23.0000 	    6.7122 
    0.5417 	   12.2225 	   22.0000 	   23.0000 	    6.7482 
    0.6638 	   12.2420 	   22.0000 	   23.0000 	    6.7872 
    0.4959 	   12.2590 	   22.0000 	   23.0000 	    6.8212 
    0.5722 	   12.2765 	   22.0000 	   23.0000 	    6.8562 
    0.3128 	   12.2935 	   22.0000 	   23.0000 	    6.8902 
    0.6790 	   12.3105 	   22.0000 	   23.0000 	    6.9242 
    0.4959 	   12.3275 	   22.0000 	   23.0000 	    6.9582 
    0.5570 	   12.3435 	   22.0000 	   23.0000 	    6.9902 
    0.5417 	   12.3615 	   22.0000 	   23.0000 	    7.0262 
    0.4501 	   12.3780 	   22.0000 	   23.0000 	    7.0592 
    0.6943 	   12.3960 	   22.0000 	   23.0000 	    7.0952 
    0.4349 	   12.4130 	   22.0000 	   23.0000 	    7.1292 
    0.6180 	   12.4305 	   22.0000 	   23.0000 	    7.1642 
    0.5570 	   12.4500 	   22.0000 	   23.0000 	    7.2032 
    0.4196 	   12.4675 	   22.0000 	   23.0000 	    7.2382 
    0.5264 	   12.4855 	   22.0000 	   23.0000 	    7.2742 
    0.7553 	   12.5030 	   22.0000 	   23.0000 	    7.3092 
    0.4654 	   12.5210 	   22.0000 	   23.0000 	    7.3452 
    0.5570 	   12.5395 	   22.0000 	   23.0000 	    7.3822 
    0.8164 	   12.5570 	   22.0000 	   23.0000 	    7.4172 
    0.6332 	   12.5740 	   22.0000 	   23.0000 	    7.4512 
    0.6027 	   12.5920 	   22.0000 	   23.0000 	    7.4872 
    0.5875 	   12.6090 	   22.0000 	   23.0000 	    7.5212 
    0.6485 	   12.6270 	   22.0000 	   23.0000 	    7.5572 
    0.4959 	   12.6445 	   22.0000 	   23.0000 	    7.5923 
    0.5264 	   12.6620 	   22.0000 	   23.0000 	    7.6263 
    0.4807 	   12.6785 	   22.0000 	   23.0000 	    7.6603 
    0.5570 	   12.6945 	   22.0000 	   23.0000 	    7.6923 
    0.5264 	   12.7130 	   22.0000 	   23.0000 	    7.7293 
    0.5264 	   12.7300 	   22.0000 	   23.0000 	    7.7633 
    0.5570 	   12.7475 	   22.0000 	   23.0000 	    7.7983 
    0.5417 	   12.7655 	   22.0000 	   23.0000 	    7.8343 
    0.6180 	   12.7825 	   22.0000 	   23.0000 	    7.8683 
    0.5264 	   12.8010 	   22.0000 	   23.0000 	    7.9053 
    0.5417 	   12.8185 	   22.0000 	   23.0000 	    7.9403 
    0.4807 	   12.8350 	   22.0000 	   23.0000 	    7.9733 
    0.4501 	   12.8530 	   22.0000 	   23.0000 	    8.0093 
    0.5417 	   12.8700 	   22.0000 	   23.0000 	    8.0433 
    0.6485 	   12.8875 	   22.0000 	   23.0000 	    8.0783 
    0.5112 	   12.9045 	   22.0000 	   23.0000 	    8.1123 
    0.6027 	   12.9225 	   22.0000 	   23.0000 	    8.1483 
    0.4654 	   12.9405 	   22.0000 	   23.0000 	    8.1843 
    0.5264 	   12.9570 	   22.0000 	   23.0000 	    8.2173 
    0.2060 	   12.9745 	   22.0000 	   23.0000 	    8.2523 
    0.8164 	   12.9925 	   22.0000 	   23.0000 	    8.2883 
    0.5722 	   13.0115 	   22.0000 	   23.0000 	    8.3263 
    0.7248 	   13.0285 	   22.0000 	   23.0000 	    8.3603 
    0.6027 	   13.0470 	   22.0000 	   23.0000 	    8.3973 
    0.5112 	   13.0635 	   22.0000 	   23.0000 	    8.4303 
    0.6638 	   13.0790 	   22.0000 	   23.0000 	    8.4613 
    0.6027 	   13.0940 	   22.0000 	   23.0000 	    8.4913 
    0.6638 	   13.1095 	   22.0000 	   23.0000 	    8.5223 
    0.5722 	   13.1275 	   22.0000 	   23.0000 	    8.5583 
    0.4196 	   13.1445 	   22.0000 	   23.0000 	    8.5923 
    0.4349 	   13.1595 	   22.0000 	   23.0000 	    8.6223 
    0.5875 	   13.1760 	   22.0000 	   23.0000 	    8.6553 
    0.6180 	   13.1935 	   22.0000 	   23.0000 	    8.6903 
    0.5722 	   13.2125 	   22.0000 	   23.0000 	    8.7283 
    0.6332 	   13.2300 	   22.0000 	   23.0000 	    8.7633 
    0.4501 	   13.2470 	   22.0000 	   23.0000 	    8.7973 
    0.5417 	   13.2640 	   22.0000 	   23.0000 	    8.8313 
    0.3738 	   13.2820 	   22.0000 	   23.0000 	    8.8673 
    0.5875 	   13.3010 	   22.0000 	   23.0000 	    8.9053 
    0.6027 	   13.3190 	   22.0000 	   23.0000 	    8.9413 
    0.5264 	   13.3365 	   22.0000 	   23.0000 	    8.9763 
    0.5875 	   13.3540 	   22.0000 	   23.0000 	    9.0113 
    0.5417 	   13.3715 	   22.0000 	   23.0000 	    9.0463 
    0.5570 	   13.3895 	   22.0000 	   23.0000 	    9.0823 
    0.4349 	   13.4070 	   22.0000 	   23.0000 	    9.1173 
    0.6485 	   13.4250 	   22.0000 	   23.0000 	    9.1533 
    0.6485 	   13.4425 	   22.0000 	   23.0000 	    9.1883 
    0.5875 	   13.4620 	   22.0000 	   23.0000 	    9.2273 
    0.6027 	   13.4785 	   22.0000 	   23.0000 	    9.2603 
    0.5417 	   13.4950 	   22.0000 	   23.0000 	    9.2933 
    0.5264 	   13.5120 	   22.0000 	   23.0000 	    9.3273 
    0.7401 	   13.5295 	   22.0000 	   23.0000 	    9.3624 
    0.6332 	   13.5480 	   22.0000 	   23.0000 	    9.3994 
    0.4349 	   13.5655 	   22.0000 	   23.0000 	    9.4344 
    0.3891 	   13.5835 	   22.0000 	   23.0000 	    9.4704 
    0.6180 	   13.6010 	   22.0000 	   23.0000 	    9.5054 
    0.6638 	   13.6185 	   22.0000 	   23.0000 	    9.5404 
    0.6027 	   13.6365 	   22.0000 	   23.0000 	    9.5764 
    0.6485 	   13.6535 	   22.0000 	   23.0000 	    9.6104 
    0.5722 	   13.6775 	   22.0000 	   23.0000 	    9.6584 
    0.5722 	   13.6935 	   22.0000 	   23.0000 	    9.6904 
    0.5264 	   13.7105 	   22.0000 	   23.0000 	    9.7244 
    0.5722 	   13.7275 	   22.0000 	   23.0000 	    9.7584 
    0.5875 	   13.7465 	   22.0000 	   23.0000 	    9.7964 
    0.4807 	   13.7630 	   22.0000 	   23.0000 	    9.8294 
    0.6790 	   13.7795 	   22.0000 	   23.0000 	    9.8624 
    0.4807 	   13.7990 	   22.0000 	   23.0000 	    9.9014 
    0.7401 	   13.8165 	   22.0000 	   23.0000 	    9.9364 
    0.4044 	   13.8330 	   22.0000 	   23.0000 	    9.9694 
    0.7095 	   13.8505 	   22.0000 	   23.0000 	   10.0044 
    0.5417 	   13.8675 	   22.0000 	   23.0000 	   10.0384 
    0.6180 	   13.8850 	   22.0000 	   23.0000 	   10.0734 
    0.4501 	   13.9025 	   22.0000 	   23.0000 	   10.1084 
    0.5417 	   13.9190 	   22.0000 	   23.0000 	   10.1414 
    0.6485 	   13.9345 	   22.0000 	   23.0000 	   10.1724 
    0.6027 	   13.9515 	   22.0000 	   23.0000 	   10.2064 
    0.6485 	   13.9690 	   22.0000 	   23.0000 	   10.2414 
    0.6332 	   13.9860 	   22.0000 	   23.0000 	   10.2754 
    0.6943 	   14.0030 	   22.0000 	   23.0000 	   10.3094 
    0.5722 	   14.0195 	   22.0000 	   23.0000 	   10.3424 
    0.5264 	   14.0390 	   22.0000 	   23.0000 	   10.3814 
    0.7095 	   14.0565 	   22.0000 	   23.0000 	   10.4164 
    0.5570 	   14.0730 	   22.0000 	   23.0000 	   10.4484 
    0.5875 	   14.0910 	   22.0000 	   23.0000 	   10.4854 
    0.6638 	   14.1085 	   22.0000 	   23.0000 	   10.5204 
    0.4501 	   14.1255 	   22.0000 	   23.0000 	   10.5544 
    0.6332 	   14.1405 	   22.0000 	   23.0000 	   10.5844 
    0.6485 	   14.1570 	   22.0000 	   23.0000 	   10.6174 
    0.6638 	   14.1745 	   22.0000 	   23.0000 	   10.6524 
    0.6485 	   14.1915 	   22.0000 	   23.0000 	   10.6864 
    0.6485 	   14.2095 	   22.0000 	   23.0000 	   10.7224 
    0.5417 	   14.2280 	   22.0000 	   23.0000 	   10.7594 
    0.7248 	   14.2465 	   22.0000 	   23.0000 	   10.7964 
    0.5570 	   14.2645 	   22.0000 	   23.0000 	   10.8324 
    0.6638 	   14.2810 	   22.0000 	   23.0000 	   10.8654 
    0.6943 	   14.3000 	   22.0000 	   23.0000 	   10.9034 
    0.3281 	   14.3165 	   22.0000 	   23.0000 	   10.9364 
    0.6180 	   14.3340 	   22.0000 	   23.0000 	   10.9714 
    0.5417 	   14.3520 	   22.0000 	   23.0000 	   11.0074 
    0.4807 	   14.3695 	   22.0000 	   23.0000 	   11.0424 
    0.5875 	   14.3860 	   22.0000 	   23.0000 	   11.0754 
    0.6027 	   14.4020 	   22.0000 	   23.0000 	   11.1075 
    0.6332 	   14.4190 	   22.0000 	   23.0000 	   11.1415 
    0.6485 	   14.4355 	   22.0000 	   23.0000 	   11.1745 
    0.6180 	   14.4510 	   22.0000 	   23.0000 	   11.2055 
    0.5112 	   14.4675 	   22.0000 	   23.0000 	   11.2385 
    0.5722 	   14.4860 	   22.0000 	   23.0000 	   11.2755 
    0.5722 	   14.5035 	   22.0000 	   23.0000 	   11.3105 
    0.6332 	   14.5200 	   22.0000 	   23.0000 	   11.3435 
    0.8011 	   14.5375 	   22.0000 	   23.0000 	   11.3785 
    0.2365 	   14.5535 	   22.0000 	   23.0000 	   11.4105 
    0.6332 	   14.5695 	   22.0000 	   23.0000 	   11.4425 
    0.5112 	   14.5870 	   22.0000 	   23.0000 	   11.4775 
    0.6943 	   14.6040 	   22.0000 	   23.0000 	   11.5115 
    0.5264 	   14.6220 	   22.0000 	   23.0000 	   11.5475 
    0.7095 	   14.6390 	   22.0000 	   23.0000 	   11.5815 
    0.6332 	   14.6570 	   22.0000 	   23.0000 	   11.6175 
    0.5722 	   14.6775 	   22.0000 	   23.0000 	   11.6585 
    0.6180 	   14.6960 	   22.0000 	   23.0000 	   11.6955 
    0.6027 	   14.7130 	   22.0000 	   23.0000 	   11.7295 
    0.7706 	   14.7310 	   22.0000 	   23.0000 	   11.7655 
    0.5722 	   14.7485 	   22.0000 	   23.0000 	   11.8005 
    0.6332 	   14.7670 	   22.0000 	   23.0000 	   11.8375 
    0.6332 	   14.7840 	   22.0000 	   23.0000 	   11.8715 
    0.6180 	   14.8025 	   22.0000 	   23.0000 	   11.9085 
    0.5417 	   14.8215 	   22.0000 	   23.0000 	   11.9465 
    0.8011 	   14.8385 	   22.0000 	   23.0000 	   11.9805 
    0.5570 	   14.8560 	   22.0000 	   23.0000 	   12.0155 
    0.6027 	   14.8740 	   22.0000 	   23.0000 	   12.0515 
    0.5417 	   14.8915 	   22.0000 	   23.0000 	   12.0865 
    0.5417 	   14.9100 	   22.0000 	   23.0000 	   12.1235 
    0.8011 	   14.9275 	   22.0000 	   23.0000 	   12.1585 
    0.5875 	   14.9450 	   22.0000 	   23.0000 	   12.1935 
    0.6790 	   14.9625 	   22.0000 	   23.0000 	   12.2285 
    0.6332 	   14.9805 	   22.0000 	   23.0000 	   12.2645 
    0.6790 	   14.9980 	   22.0000 	   23.0000 	   12.2995 
    0.3891 	   15.0165 	   22.0000 	   23.0000 	   12.3365 
    0.6638 	   15.0350 	   22.0000 	   23.0000 	   12.3735 
    0.6485 	   15.0540 	   22.0000 	   23.0000 	   12.4115 
    0.5875 	   15.0725 	   22.0000 	   23.0000 	   12.4485 
    0.6790 	   15.0905 	   22.0000 	   23.0000 	   12.4845 
    0.6180 	   15.1080 	   22.0000 	   23.0000 	   12.5195 
    0.6332 	   15.1255 	   22.0000 	   23.0000 	   12.5545 
    0.5570 	   15.1435 	   22.0000 	   23.0000 	   12.5905 
    0.5875 	   15.1620 	   22.0000 	   23.0000 	   12.6275 
    0.6180 	   15.1795 	   22.0000 	   23.0000 	   12.6625 
    0.6638 	   15.1965 	   22.0000 	   23.0000 	   12.6965 
    0.6943 	   15.2145 	   22.0000 	   23.0000 	   12.7325 
    0.6943 	   15.2300 	   22.0000 	   23.0000 	   12.7635 
    0.6485 	   15.2475 	   22.0000 	   23.0000 	   12.7985 
    0.3281 	   15.2640 	   22.0000 	   23.0000 	   12.8316 
    0.5417 	   15.2800 	   22.0000 	   23.0000 	   12.8636 
    0.2518 	   15.2955 	   22.0000 	   23.0000 	   12.8946 
    0.6790 	   15.3115 	   22.0000 	   23.0000 	   12.9266 
    0.6943 	   15.3275 	   22.0000 	   23.0000 	   12.9586 
    0.7858 	   15.3440 	   22.0000 	   23.0000 	   12.9916 
    0.6180 	   15.3615 	   22.0000 	   23.0000 	   13.0266 
    0.8164 	   15.3780 	   22.0000 	   23.0000 	   13.0596 
    0.5264 	   15.3940 	   22.0000 	   23.0000 	   13.0916 
    0.5875 	   15.4110 	   22.0000 	   23.0000 	   13.1256 
    0.7095 	   15.4285 	   22.0000 	   23.0000 	   13.1606 
    0.6332 	   15.4465 	   22.0000 	   23.0000 	   13.1966 
    0.4349 	   15.4640 	   22.0000 	   23.0000 	   13.2316 
    0.6638 	   15.4805 	   22.0000 	   23.0000 	   13.2646 
    0.6790 	   15.4960 	   22.0000 	   23.0000 	   13.2956 
    0.9232 	   15.5130 	   22.0000 	   23.0000 	   13.3296 
    0.7858 	   15.5280 	   22.0000 	   23.0000 	   13.3596 
    0.5722 	   15.5615 	   22.0000 	   23.0000 	   13.4266 
    0.6943 	   15.5775 	   22.0000 	   23.0000 	   13.4586 
    0.6790 	   15.5940 	   22.0000 	   23.0000 	   13.4916 
    0.7706 	   15.6095 	   22.0000 	   23.0000 	   13.5226 
    0.5417 	   15.6255 	   22.0000 	   23.0000 	   13.5546 
    0.6943 	   15.6410 	   22.0000 	   23.0000 	   13.5856 
    0.6027 	   15.6565 	   22.0000 	   23.0000 	   13.6166 
    0.6485 	   15.6775 	   22.0000 	   23.0000 	   13.6586 
    0.6943 	   15.6935 	   22.0000 	   23.0000 	   13.6906 
    0.5417 	   15.7115 	   22.0000 	   23.0000 	   13.7266 
    0.6180 	   15.7290 	   22.0000 	   23.0000 	   13.7616 
    0.7553 	   15.7450 	   22.0000 	   23.0000 	   13.7936 
    0.5722 	   15.7610 	   22.0000 	   23.0000 	   13.8256 
    0.6332 	   15.7775 	   22.0000 	   23.0000 	   13.8586 
    0.6790 	   15.7940 	   22.0000 	   23.0000 	   13.8916 
    0.6485 	   15.8095 	   22.0000 	   23.0000 	   13.9226 
    0.6638 	   15.8255 	   22.0000 	   23.0000 	   13.9546 
    0.6332 	   15.8415 	   22.0000 	   23.0000 	   13.9866 
    0.8774 	   15.8570 	   22.0000 	   23.0000 	   14.0176 
    0.6180 	   15.8725 	   22.0000 	   23.0000 	   14.0486 
    0.5722 	   15.8895 	   22.0000 	   23.0000 	   14.0826 
    0.7401 	   15.9075 	   22.0000 	   23.0000 	   14.1186 
    0.6638 	   15.9260 	   22.0000 	   23.0000 	   14.1556 
    0.3738 	   15.9425 	   22.0000 	   23.0000 	   14.1886 
    0.7401 	   15.9585 	   22.0000 	   23.0000 	   14.2206 
    0.6790 	   15.9745 	   22.0000 	   23.0000 	   14.2526 
    0.6180 	   15.9905 	   22.0000 	   23.0000 	   14.2846 
    0.8011 	   16.0060 	   22.0000 	   23.0000 	   14.3156 
    0.5875 	   16.0220 	   22.0000 	   23.0000 	   14.3476 
    0.6943 	   16.0400 	   22.0000 	   23.0000 	   14.3836 
    0.7401 	   16.0565 	   22.0000 	   23.0000 	   14.4166 
    0.7553 	   16.0725 	   22.0000 	   23.0000 	   14.4486 
    0.5722 	   16.0885 	   22.0000 	   23.0000 	   14.4806 
    0.5722 	   16.1045 	   22.0000 	   23.0000 	   14.5126 
    0.6943 	   16.1205 	   22.0000 	   23.0000 	   14.5446 
    0.7095 	   16.1370 	   22.0000 	   23.0000 	   14.5777 
    0.4654 	   16.1525 	   22.0000 	   23.0000 	   14.6087 
    0.6943 	   16.1690 	   22.0000 	   23.0000 	   14.6417 
    0.6027 	   16.1845 	   22.0000 	   23.0000 	   14.6727 
    0.6332 	   16.2000 	   22.0000 	   23.0000 	   14.7037 
    0.6180 	   16.2170 	   22.0000 	   23.0000 	   14.7377 
    0.6180 	   16.2335 	   22.0000 	   23.0000 	   14.7707 
    0.5722 	   16.2495 	   22.0000 	   23.0000 	   14.8027 
    0.6790 	   16.2650 	   22.0000 	   23.0000 	   14.8337 
    0.3891 	   16.2810 	   22.0000 	   23.0000 	   14.8657 
    0.8011 	   16.2965 	   22.0000 	   23.0000 	   14.8967 
    0.6638 	   16.3125 	   22.0000 	   23.0000 	   14.9287 
    0.6638 	   16.3285 	   22.0000 	   23.0000 	   14.9607 
    0.6790 	   16.3460 	   22.0000 	   23.0000 	   14.9957 
    0.7095 	   16.3640 	   22.0000 	   23.0000 	   15.0317 
    0.7248 	   16.3815 	   22.0000 	   23.0000 	   15.0667 
    0.9079 	   16.3980 	   22.0000 	   23.0000 	   15.0997 
    0.7095 	   16.4165 	   22.0000 	   23.0000 	   15.1367 
    0.7706 	   16.4340 	   22.0000 	   23.0000 	   15.1717 
    0.6332 	   16.4515 	   22.0000 	   23.0000 	   15.2067 
    0.6027 	   16.4690 	   22.0000 	   23.0000 	   15.2417 
    0.5875 	   16.4870 	   22.0000 	   23.0000 	   15.2777 
    0.3128 	   16.5055 	   22.0000 	   23.0000 	   15.3147 
    0.7401 	   16.5225 	   22.0000 	   23.0000 	   15.3487 
    0.6485 	   16.5425 	   22.0000 	   23.0000 	   15.3887 
    0.6332 	   16.5610 	   22.0000 	   23.0000 	   15.4257 
    0.4501 	   16.5780 	   22.0000 	   23.0000 	   15.4597 
    0.5112 	   16.5960 	   22.0000 	   23.0000 	   15.4957 
    0.6180 	   16.6135 	   22.0000 	   23.0000 	   15.5307 
    0.6027 	   16.6310 	   22.0000 	   23.0000 	   15.5657 
    0.8774 	   16.6490 	   22.0000 	   23.0000 	   15.6017 
    0.3738 	   16.6675 	   22.0000 	   23.0000 	   15.6387 
    0.6027 	   16.6860 	   22.0000 	   23.0000 	   15.6757 
    0.6332 	   16.7035 	   22.0000 	   23.0000 	   15.7107 
    0.9079 	   16.7210 	   22.0000 	   23.0000 	   15.7457 
    0.4044 	   16.7370 	   22.0000 	   23.0000 	   15.7777 
    0.7095 	   16.7545 	   22.0000 	   23.0000 	   15.8127 
    0.7553 	   16.7705 	   22.0000 	   23.0000 	   15.8447 
    0.6943 	   16.7870 	   22.0000 	   23.0000 	   15.8777 
    0.6180 	   16.8035 	   22.0000 	   23.0000 	   15.9107 
    0.6485 	   16.8205 	   22.0000 	   23.0000 	   15.9447 
    0.6027 	   16.8365 	   22.0000 	   23.0000 	   15.9767 
    0.7553 	   16.8535 	   22.0000 	   23.0000 	   16.0107 
    0.6638 	   16.8720 	   22.0000 	   23.0000 	   16.0477 
    0.6027 	   16.8900 	   22.0000 	   23.0000 	   16.0837 
    0.6180 	   16.9090 	   22.0000 	   23.0000 	   16.1207 
    0.6485 	   16.9265 	   22.0000 	   23.0000 	   16.1557 
    0.7706 	   16.9455 	   22.0000 	   23.0000 	   16.1937 
    0.5570 	   16.9630 	   22.0000 	   23.0000 	   16.2287 
    0.6332 	   16.9820 	   22.0000 	   23.0000 	   16.2667 
    0.6790 	   16.9995 	   22.0000 	   23.0000 	   16.3017 
    0.5875 	   17.0175 	   22.0000 	   23.0000 	   16.3377 
    0.6638 	   17.0355 	   22.0000 	   23.0000 	   16.3738 
    0.6027 	   17.0545 	   22.0000 	   23.0000 	   16.4118 
    0.6180 	   17.0735 	   22.0000 	   23.0000 	   16.4498 
    0.4349 	   17.0915 	   22.0000 	   23.0000 	   16.4858 
    0.7401 	   17.1105 	   22.0000 	   23.0000 	   16.5238 
    0.8621 	   17.1285 	   22.0000 	   23.0000 	   16.5598 
    0.6332 	   17.1465 	   22.0000 	   23.0000 	   16.5958 
    0.8164 	   17.1650 	   22.0000 	   23.0000 	   16.6328 
    0.8011 	   17.1830 	   22.0000 	   23.0000 	   16.6688 
    0.7401 	   17.2015 	   22.0000 	   23.0000 	   16.7058 
    0.6790 	   17.2200 	   22.0000 	   23.0000 	   16.7428 
    0.6790 	   17.2380 	   22.0000 	   23.0000 	   16.7788 
    0.7401 	   17.2560 	   22.0000 	   23.0000 	   16.8148 
    0.6180 	   17.2740 	   22.0000 	   23.0000 	   16.8508 
    0.7401 	   17.2925 	   22.0000 	   23.0000 	   16.8878 
    0.7095 	   17.3090 	   22.0000 	   23.0000 	   16.9208 
    0.6332 	   17.3270 	   22.0000 	   23.0000 	   16.9568 
    0.6332 	   17.3440 	   22.0000 	   23.0000 	   16.9908 
    0.6638 	   17.3615 	   22.0000 	   23.0000 	   17.0258 
    0.6638 	   17.3795 	   22.0000 	   23.0000 	   17.0618 
    0.6485 	   17.3980 	   22.0000 	   23.0000 	   17.0988 
    0.6638 	   17.4160 	   22.0000 	   23.0000 	   17.1348 
    0.6485 	   17.4340 	   22.0000 	   23.0000 	   17.1708 
    0.8164 	   17.4510 	   22.0000 	   23.0000 	   17.2048 
    0.6790 	   17.4670 	   22.0000 	   23.0000 	   17.2368 
    0.6485 	   17.4830 	   22.0000 	   23.0000 	   17.2688 
    0.7553 	   17.4990 	   22.0000 	   23.0000 	   17.3008 
    0.5264 	   17.5155 	   22.0000 	   23.0000 	   17.3338 
    0.6485 	   17.5315 	   22.0000 	   23.0000 	   17.3658 
    0.5264 	   17.5490 	   22.0000 	   23.0000 	   17.4008 
    0.5417 	   17.5655 	   22.0000 	   23.0000 	   17.4338 
    0.6180 	   17.5820 	   22.0000 	   23.0000 	   17.4668 
    0.6638 	   17.5980 	   22.0000 	   23.0000 	   17.4988 
    0.6638 	   17.6140 	   22.0000 	   23.0000 	   17.5308 
    0.7553 	   17.6295 	   22.0000 	   23.0000 	   17.5618 
    0.6790 	   17.6470 	   22.0000 	   23.0000 	   17.5968 
    0.7553 	   17.6655 	   22.0000 	   23.0000 	   17.6338 
    0.8011 	   17.6830 	   22.0000 	   23.0000 	   17.6688 
    0.6332 	   17.7010 	   22.0000 	   23.0000 	   17.7048 
    0.7401 	   17.7190 	   22.0000 	   23.0000 	   17.7408 
    0.7401 	   17.7365 	   22.0000 	   23.0000 	   17.7758 
    0.3433 	   17.7550 	   22.0000 	   23.0000 	   17.8128 
    0.7706 	   17.7725 	   22.0000 	   23.0000 	   17.8478 
    0.3891 	   17.7915 	   22.0000 	   23.0000 	   17.8858 
    0.7401 	   17.8100 	   22.0000 	   23.0000 	   17.9228 
    0.6180 	   17.8285 	   22.0000 	   23.0000 	   17.9598 
    0.8469 	   17.8455 	   22.0000 	   23.0000 	   17.9938 
    0.7858 	   17.8615 	   22.0000 	   23.0000 	   18.0258 
    0.7401 	   17.8775 	   22.0000 	   23.0000 	   18.0578 
    0.7553 	   17.8940 	   22.0000 	   23.0000 	   18.0909 
    0.6943 	   17.9120 	   22.0000 	   23.0000 	   18.1269 
    0.7401 	   17.9300 	   22.0000 	   23.0000 	   18.1629 
    0.7401 	   17.9480 	   22.0000 	   23.0000 	   18.1989 
    0.6332 	   17.9650 	   22.0000 	   23.0000 	   18.2329 
    0.6790 	   17.9835 	   22.0000 	   23.0000 	   18.2699 
    0.5112 	   18.0020 	   22.0000 	   23.0000 	   18.3069 
    0.8011 	   18.0210 	   22.0000 	   23.0000 	   18.3449 
    0.7858 	   18.0420 	   22.0000 	   23.0000 	   18.3869 
    0.7401 	   18.0610 	   22.0000 	   23.0000 	   18.4249 
    0.7401 	   18.0790 	   22.0000 	   23.0000 	   18.4609 
    0.7095 	   18.0975 	   22.0000 	   23.0000 	   18.4979 
    0.5570 	   18.1150 	   22.0000 	   23.0000 	   18.5329 
    0.8164 	   18.1340 	   22.0000 	   23.0000 	   18.5709 
    0.7706 	   18.1520 	   22.0000 	   23.0000 	   18.6069 
    0.6943 	   18.1705 	   22.0000 	   23.0000 	   18.6439 
    0.7401 	   18.1885 	   22.0000 	   23.0000 	   18.6799 
    0.7858 	   18.2065 	   22.0000 	   23.0000 	   18.7159 
    0.7401 	   18.2235 	   22.0000 	   23.0000 	   18.7499 
    0.8011 	   18.2425 	   22.0000 	   23.0000 	   18.7879 
    0.6180 	   18.2605 	   22.0000 	   23.0000 	   18.8239 
    0.8011 	   18.2795 	   22.0000 	   23.0000 	   18.8619 
    0.8316 	   18.2990 	   22.0000 	   23.0000 	   18.9009 
    0.6943 	   18.3165 	   22.0000 	   23.0000 	   18.9359 
    0.6943 	   18.3345 	   22.0000 	   23.0000 	   18.9719 
    0.6180 	   18.3530 	   22.0000 	   23.0000 	   19.0089 
    0.6180 	   18.3715 	   22.0000 	   23.0000 	   19.0459 
    0.8164 	   18.3900 	   22.0000 	   23.0000 	   19.0829 
    0.8927 	   18.4090 	   22.0000 	   23.0000 	   19.1209 
    0.6790 	   18.4275 	   22.0000 	   23.0000 	   19.1579 
    0.7401 	   18.4455 	   22.0000 	   23.0000 	   19.1939 
    0.6485 	   18.4630 	   22.0000 	   23.0000 	   19.2289 
    0.6943 	   18.4820 	   22.0000 	   23.0000 	   19.2669 
    0.8621 	   18.4990 	   22.0000 	   23.0000 	   19.3009 
    0.6638 	   18.5180 	   22.0000 	   23.0000 	   19.3389 
    0.8164 	   18.5365 	   22.0000 	   23.0000 	   19.3759 
    0.8774 	   18.5565 	   22.0000 	   23.0000 	   19.4159 
    0.5417 	   18.5755 	   22.0000 	   23.0000 	   19.4539 
    0.6943 	   18.5940 	   22.0000 	   23.0000 	   19.4909 
    0.8011 	   18.6120 	   22.0000 	   23.0000 	   19.5269 
    0.6638 	   18.6300 	   22.0000 	   23.0000 	   19.5629 
    0.6180 	   18.6490 	   22.0000 	   23.0000 	   19.6009 
    0.6790 	   18.6675 	   22.0000 	   23.0000 	   19.6379 
    0.7401 	   18.6850 	   22.0000 	   23.0000 	   19.6729 
    0.7095 	   18.7040 	   22.0000 	   23.0000 	   19.7109 
    0.7401 	   18.7230 	   22.0000 	   23.0000 	   19.7489 
    0.6790 	   18.7425 	   22.0000 	   23.0000 	   19.7879 
    0.7401 	   18.7605 	   22.0000 	   23.0000 	   19.8239 
    0.6943 	   18.7795 	   22.0000 	   23.0000 	   19.8620 
    0.9689 	   18.7975 	   22.0000 	   23.0000 	   19.8980 
    0.8774 	   18.8165 	   22.0000 	   23.0000 	   19.9360 
    0.8621 	   18.8345 	   22.0000 	   23.0000 	   19.9720 
    0.7706 	   18.8535 	   22.0000 	   23.0000 	   20.0100 
    0.7858 	   18.8725 	   22.0000 	   23.0000 	   20.0480 
    0.8164 	   18.8905 	   22.0000 	   23.0000 	   20.0840 
    0.6180 	   18.9080 	   22.0000 	   23.0000 	   20.1190 
    0.5417 	   18.9270 	   22.0000 	   23.0000 	   20.1570 
    0.6943 	   18.9450 	   22.0000 	   23.0000 	   20.1930 
    0.6638 	   18.9640 	   22.0000 	   23.0000 	   20.2310 
    0.7095 	   18.9820 	   22.0000 	   23.0000 	   20.2670 
    0.4501 	   18.9995 	   22.0000 	   23.0000 	   20.3020 
    0.8316 	   19.0185 	   22.0000 	   23.0000 	   20.3400 
    0.7095 	   19.0375 	   22.0000 	   23.0000 	   20.3780 
    0.6332 	   19.0580 	   22.0000 	   23.0000 	   20.4190 
    0.6027 	   19.0760 	   22.0000 	   23.0000 	   20.4550 
    0.7553 	   19.0955 	   22.0000 	   23.0000 	   20.4940 
    0.9842 	   19.1140 	   22.0000 	   23.0000 	   20.5310 
    0.7095 	   19.1325 	   22.0000 	   23.0000 	   20.5680 
    0.7095 	   19.1505 	   22.0000 	   23.0000 	   20.6040 
    0.6790 	   19.1700 	   22.0000 	   23.0000 	   20.6430 
    0.7401 	   19.1890 	   22.0000 	   23.0000 	   20.6810 
    0.8164 	   19.2075 	   22.0000 	   23.0000 	   20.7180 
    0.6790 	   19.2260 	   22.0000 	   23.0000 	   20.7550 
    0.7401 	   19.2445 	   22.0000 	   23.0000 	   20.7920 
    0.8469 	   19.2615 	   22.0000 	   23.0000 	   20.8260 
    0.7401 	   19.2785 	   22.0000 	   23.0000 	   20.8600 
    0.7095 	   19.2950 	   22.0000 	   23.0000 	   20.8930 
    0.9232 	   19.3110 	   22.0000 	   23.0000 	   20.9250 
    0.6180 	   19.3280 	   22.0000 	   23.0000 	   20.9590 
    0.9079 	   19.3450 	   22.0000 	   23.0000 	   20.9930 
    0.7248 	   19.3615 	   22.0000 	   23.0000 	   21.0260 
    0.7401 	   19.3780 	   22.0000 	   23.0000 	   21.0590 
    0.7095 	   19.3945 	   22.0000 	   23.0000 	   21.0920 
    0.6027 	   19.4115 	   22.0000 	   23.0000 	   21.1260 
    0.8011 	   19.4280 	   22.0000 	   23.0000 	   21.1590 
    0.7858 	   19.4445 	   22.0000 	   23.0000 	   21.1920 
    0.7248 	   19.4605 	   22.0000 	   23.0000 	   21.2240 
    0.8011 	   19.4775 	   22.0000 	   23.0000 	   21.2580 
    0.7858 	   19.4965 	   22.0000 	   23.0000 	   21.2960 
    0.5875 	   19.5155 	   22.0000 	   23.0000 	   21.3340 
    0.7553 	   19.5335 	   22.0000 	   23.0000 	   21.3700 
    0.6638 	   19.5535 	   22.0000 	   23.0000 	   21.4100 
    0.9079 	   19.5725 	   22.0000 	   23.0000 	   21.4480 
    0.8011 	   19.5910 	   22.0000 	   23.0000 	   21.4850 
    0.8316 	   19.6100 	   22.0000 	   23.0000 	   21.5230 
    0.8316 	   19.6290 	   22.0000 	   23.0000 	   21.5611 
    0.7858 	   19.6480 	   22.0000 	   23.0000 	   21.5991 
    0.7401 	   19.6670 	   22.0000 	   23.0000 	   21.6371 
    0.7401 	   19.6850 	   22.0000 	   23.0000 	   21.6731 
    0.7553 	   19.7035 	   22.0000 	   23.0000 	   21.7101 
    0.7095 	   19.7220 	   22.0000 	   23.0000 	   21.7471 
    0.8469 	   19.7410 	   22.0000 	   23.0000 	   21.7851 
    0.8621 	   19.7585 	   22.0000 	   23.0000 	   21.8201 
    0.7858 	   19.7755 	   22.0000 	   23.0000 	   21.8541 
    0.3738 	   19.7920 	   22.0000 	   23.0000 	   21.8871 
    0.6943 	   19.8090 	   22.0000 	   23.0000 	   21.9211 
    0.7401 	   19.8260 	   22.0000 	   23.0000 	   21.9551 
    0.7858 	   19.8425 	   22.0000 	   23.0000 	   21.9881 
    0.6943 	   19.8595 	   22.0000 	   23.0000 	   22.0221 
    0.8469 	   19.8765 	   22.0000 	   23.0000 	   22.0561 
    0.6180 	   19.8930 	   22.0000 	   23.0000 	   22.0891 
    0.8621 	   19.9105 	   22.0000 	   23.0000 	   22.1241 
    0.8011 	   19.9290 	   22.0000 	   23.0000 	   22.1611 
    0.6790 	   19.9480 	   22.0000 	   23.0000 	   22.1991 
    0.7858 	   19.9665 	   22.0000 	   23.0000 	   22.2361 
    0.7858 	   19.9850 	   22.0000 	   23.0000 	   22.2731 
    0.6943 	   20.0040 	   22.0000 	   23.0000 	   22.3111 
    0.9079 	   20.0225 	   22.0000 	   23.0000 	   22.3481 
    0.7095 	   20.0415 	   22.0000 	   23.0000 	   22.3861 
    0.7401 	   20.0585 	   22.0000 	   23.0000 	   22.4201 
    0.7095 	   20.0750 	   22.0000 	   23.0000 	   22.4531 
    0.7401 	   20.0920 	   22.0000 	   23.0000 	   22.4871 
    0.8774 	   20.1090 	   22.0000 	   23.0000 	   22.5211 
    0.7706 	   20.1260 	   22.0000 	   23.0000 	   22.5551 
    0.6485 	   20.1425 	   22.0000 	   23.0000 	   22.5881 
    0.6943 	   20.1605 	   22.0000 	   23.0000 	   22.6241 
    0.8011 	   20.1785 	   22.0000 	   23.0000 	   22.6601 
    0.7553 	   20.1950 	   22.0000 	   23.0000 	   22.6931 
    0.9232 	   20.2125 	   22.0000 	   23.0000 	   22.7281 
    0.7706 	   20.2285 	   22.0000 	   23.0000 	   22.7601 
    0.8774 	   20.2455 	   22.0000 	   23.0000 	   22.7941 
    0.7095 	   20.2625 	   22.0000 	   23.0000 	   22.8271 
    0.6638 	   20.2790 	   22.0000 	   23.0000 	   22.8611 
    0.7858 	   20.2960 	   22.0000 	   23.0000 	   22.8951 
    0.7401 	   20.3125 	   22.0000 	   23.0000 	   22.9281 
    0.8621 	   20.3295 	   22.0000 	   23.0000 	   22.9621 
    0.8927 	   20.3465 	   22.0000 	   23.0000 	   22.9961 
    0.6332 	   20.3635 	   22.0000 	   23.0000 	   23.0301 
    0.8316 	   20.3800 	   22.0000 	   23.0000 	   23.0631 
    0.7553 	   20.3960 	   22.0000 	   23.0000 	   23.0951 
    0.7706 	   20.4130 	   22.0000 	   23.0000 	   23.1291 
    0.8164 	   20.4310 	   22.0000 	   23.0000 	   23.1651 
    0.8621 	   20.4480 	   22.0000 	   23.0000 	   23.1991 
    0.8011 	   20.4650 	   22.0000 	   23.0000 	   23.2331 
    0.6638 	   20.4820 	   22.0000 	   23.0000 	   23.2671 
    0.9079 	   20.4985 	   22.0000 	   23.0000 	   23.3001 
    0.7858 	   20.5150 	   22.0000 	   23.0000 	   23.3332 
    0.6638 	   20.5325 	   22.0000 	   23.0000 	   23.3682 
    0.8316 	   20.5510 	   22.0000 	   23.0000 	   23.4052 
    0.8164 	   20.5675 	   22.0000 	   23.0000 	   23.4382 
    0.9842 	   20.5845 	   22.0000 	   23.0000 	   23.4722 
    0.6943 	   20.6010 	   22.0000 	   23.0000 	   23.5052 
    0.7858 	   20.6180 	   22.0000 	   23.0000 	   23.5392 
    0.8621 	   20.6350 	   22.0000 	   23.0000 	   23.5732 
    0.8621 	   20.6520 	   22.0000 	   23.0000 	   23.6072 
    0.7401 	   20.6690 	   22.0000 	   23.0000 	   23.6412 
    0.9079 	   20.6860 	   22.0000 	   23.0000 	   23.6752 
    0.8774 	   20.7030 	   22.0000 	   23.0000 	   23.7092 
    0.9384 	   20.7200 	   22.0000 	   23.0000 	   23.7432 
    0.8011 	   20.7370 	   22.0000 	   23.0000 	   23.7772 
    0.7858 	   20.7540 	   22.0000 	   23.0000 	   23.8112 
    0.7553 	   20.7710 	   22.0000 	   23.0000 	   23.8452 
    0.6027 	   20.7885 	   22.0000 	   23.0000 	   23.8802 
    0.7553 	   20.8070 	   22.0000 	   23.0000 	   23.9172 
    0.6638 	   20.8255 	   22.0000 	   23.0000 	   23.9542 
    0.8011 	   20.8440 	   22.0000 	   23.0000 	   23.9912 
    0.7401 	   20.8625 	   22.0000 	   23.0000 	   24.0282 
    0.9232 	   20.8810 	   22.0000 	   23.0000 	   24.0652 
    0.8011 	   20.9005 	   22.0000 	   23.0000 	   24.1042 
    0.7401 	   20.9185 	   22.0000 	   23.0000 	   24.1402 
    0.7401 	   20.9370 	   22.0000 	   23.0000 	   24.1772 
    0.8927 	   20.9570 	   22.0000 	   23.0000 	   24.2172 
    0.8469 	   20.9750 	   22.0000 	   23.0000 	   24.2532 
    0.8469 	   20.9915 	   22.0000 	   23.0000 	   24.2862 
    0.7553 	   21.0085 	   22.0000 	   23.0000 	   24.3202 
    0.8011 	   21.0260 	   22.0000 	   23.0000 	   24.3552 
    0.8927 	   21.0450 	   22.0000 	   23.0000 	   24.3932 
    0.7706 	   21.0615 	   22.0000 	   23.0000 	   24.4262 
    0.7858 	   21.0780 	   22.0000 	   23.0000 	   24.4592 
    0.8927 	   21.0945 	   22.0000 	   23.0000 	   24.4922 
    0.8316 	   21.1115 	   22.0000 	   23.0000 	   24.5262 
    0.7553 	   21.1290 	   22.0000 	   23.0000 	   24.5612 
    0.7706 	   21.1465 	   22.0000 	   23.0000 	   24.5962 
    0.7095 	   21.1660 	   22.0000 	   23.0000 	   24.6352 
    1.0758 	   21.1840 	   22.0000 	   23.0000 	   24.6712 
    0.7401 	   21.2035 	   22.0000 	   23.0000 	   24.7102 
    0.8011 	   21.2230 	   22.0000 	   23.0000 	   24.7492 
    0.8927 	   21.2435 	   22.0000 	   23.0000 	   24.7902 
    0.8927 	   21.2610 	   22.0000 	   23.0000 	   24.8252 
    1.0147 	   21.2805 	   22.0000 	   23.0000 	   24.8642 
    0.8621 	   21.2985 	   22.0000 	   23.0000 	   24.9002 
    0.9079 	   21.3180 	   22.0000 	   23.0000 	   24.9392 
    0.8469 	   21.3360 	   22.0000 	   23.0000 	   24.9752 
    0.9384 	   21.3545 	   22.0000 	   23.0000 	   25.0122 
    0.7095 	   21.3735 	   22.0000 	   23.0000 	   25.0502 
    0.9232 	   21.3920 	   22.0000 	   23.0000 	   25.0873 
    0.8011 	   21.4105 	   22.0000 	   23.0000 	   25.1243 
    0.9079 	   21.4290 	   22.0000 	   23.0000 	   25.1613 
    0.9232 	   21.4470 	   22.0000 	   23.0000 	   25.1973 
    0.9079 	   21.4665 	   22.0000 	   23.0000 	   25.2363 
    0.9689 	   21.4850 	   22.0000 	   23.0000 	   25.2733 
    0.9689 	   21.5045 	   22.0000 	   23.0000 	   25.3113 
    0.8621 	   21.5230 	   22.0000 	   23.0000 	   25.3493 
    0.8621 	   21.5440 	   22.0000 	   23.0000 	   25.3913 
    0.8621 	   21.5620 	   22.0000 	   23.0000 	   25.4273 
    0.8621 	   21.5805 	   22.0000 	   23.0000 	   25.4643 
    0.6485 	   21.6005 	   22.0000 	   23.0000 	   25.5043 
    0.7553 	   21.6185 	   22.0000 	   23.0000 	   25.5403 
    0.8774 	   21.6380 	   22.0000 	   23.0000 	   25.5793 
    0.8316 	   21.6575 	   22.0000 	   23.0000 	   25.6183 
    0.9384 	   21.6775 	   22.0000 	   23.0000 	   25.6583 
    0.9079 	   21.6970 	   22.0000 	   23.0000 	   25.6973 
    0.9384 	   21.7165 	   22.0000 	   23.0000 	   25.7363 
    0.7401 	   21.7360 	   22.0000 	   23.0000 	   25.7753 
    0.9232 	   21.7545 	   22.0000 	   23.0000 	   25.8123 
    0.7553 	   21.7730 	   22.0000 	   23.0000 	   25.8493 
    0.7858 	   21.7925 	   22.0000 	   23.0000 	   25.8883 
    0.8164 	   21.8110 	   22.0000 	   23.0000 	   25.9253 
    0.8469 	   21.8295 	   22.0000 	   23.0000 	   25.9623 
    0.9384 	   21.8485 	   22.0000 	   23.0000 	   26.0003 
    0.9232 	   21.8670 	   22.0000 	   23.0000 	   26.0373 
    0.8621 	   21.8860 	   22.0000 	   23.0000 	   26.0753 
    0.9689 	   21.9060 	   22.0000 	   23.0000 	   26.1153 
    0.9995 	   21.9245 	   22.0000 	   23.0000 	   26.1523 
    0.8469 	   21.9435 	   22.0000 	   23.0000 	   26.1903 
    0.8011 	   21.9625 	   22.0000 	   23.0000 	   26.2283 
    0.8164 	   21.9820 	   22.0000 	   23.0000 	   26.2673 
    0.8316 	   22.0005 	   22.0000 	   23.0000 	   26.3043 
    0.6790 	   22.0180 	   22.0000 	   23.0000 	   26.3393 
    0.9079 	   22.0370 	   22.0000 	   23.0000 	   26.3773 
    0.9842 	   22.0540 	   22.0000 	   23.0000 	   26.4113 
    0.9079 	   22.0715 	   22.0000 	   23.0000 	   26.4463 
    0.8164 	   22.0885 	   22.0000 	   23.0000 	   26.4803 
    0.9384 	   22.1055 	   22.0000 	   23.0000 	   26.5143 
    0.7248 	   22.1230 	   22.0000 	   23.0000 	   26.5493 
    0.8011 	   22.1400 	   22.0000 	   23.0000 	   26.5833 
    0.8469 	   22.1570 	   22.0000 	   23.0000 	   26.6173 
    0.9995 	   22.1740 	   22.0000 	   23.0000 	   26.6513 
    0.8469 	   22.1910 	   22.0000 	   23.0000 	   26.6853 
    0.9079 	   22.2075 	   22.0000 	   23.0000 	   26.7183 
    0.7706 	   22.2250 	   22.0000 	   23.0000 	   26.7533 
    0.9689 	   22.2415 	   22.0000 	   23.0000 	   26.7863 
    0.7401 	   22.2585 	   22.0000 	   23.0000 	   26.8204 
    0.9079 	   22.2755 	   22.0000 	   23.0000 	   26.8544 
    0.7706 	   22.2925 	   22.0000 	   23.0000 	   26.8884 
    0.8316 	   22.3095 	   22.0000 	   23.0000 	   26.9224 
    0.9842 	   22.3265 	   22.0000 	   23.0000 	   26.9564 
    0.9537 	   22.3440 	   22.0000 	   23.0000 	   26.9914 
    0.8469 	   22.3610 	   22.0000 	   23.0000 	   27.0254 
    0.7858 	   22.3775 	   22.0000 	   23.0000 	   27.0584 
    0.9232 	   22.3950 	   22.0000 	   23.0000 	   27.0934 
    0.9079 	   22.4140 	   22.0000 	   23.0000 	   27.1314 
    0.7858 	   22.4340 	   22.0000 	   23.0000 	   27.1714 
    0.7858 	   22.4540 	   22.0000 	   23.0000 	   27.2114 
    0.9995 	   22.4740 	   22.0000 	   23.0000 	   27.2514 
    0.9384 	   22.4920 	   22.0000 	   23.0000 	   27.2874 
    0.8164 	   22.5090 	   22.0000 	   23.0000 	   27.3214 
    0.8621 	   22.5260 	   22.0000 	   23.0000 	   27.3554 
    0.8621 	   22.5450 	   22.0000 	   23.0000 	   27.3934 
    0.8011 	   22.5625 	   22.0000 	   23.0000 	   27.4284 
    1.0300 	   22.5790 	   22.0000 	   23.0000 	   27.4614 
    0.8621 	   22.5965 	   22.0000 	   23.0000 	   27.4964 
    0.8774 	   22.6135 	   22.0000 	   23.0000 	   27.5304 
    0.8774 	   22.6310 	   22.0000 	   23.0000 	   27.5654 
    0.9384 	   22.6475 	   22.0000 	   23.0000 	   27.5984 
    0.8316 	   22.6650 	   22.0000 	   23.0000 	   27.6334 
    0.8927 	   22.6815 	   22.0000 	   23.0000 	   27.6664 
    0.8621 	   22.6985 	   22.0000 	   23.0000 	   27.7004 
    0.7553 	   22.7160 	   22.0000 	   23.0000 	   27.7354 
    0.8774 	   22.7340 	   22.0000 	   23.0000 	   27.7714 
    0.8469 	   22.7510 	   22.0000 	   23.0000 	   27.8054 
    0.7095 	   22.7680 	   22.0000 	   23.0000 	   27.8394 
    0.9384 	   22.7850 	   22.0000 	   23.0000 	   27.8734 
    0.9995 	   22.8025 	   22.0000 	   23.0000 	   27.9084 
    0.9537 	   22.8200 	   22.0000 	   23.0000 	   27.9434 
    0.9384 	   22.8365 	   22.0000 	   23.0000 	   27.9764 
    0.7248 	   22.8535 	   22.0000 	   23.0000 	   28.0104 
    0.8621 	   22.8705 	   22.0000 	   23.0000 	   28.0444 
    1.0300 	   22.8875 	   22.0000 	   23.0000 	   28.0784 
    0.9842 	   22.9050 	   22.0000 	   23.0000 	   28.1134 
    0.9842 	   22.9220 	   22.0000 	   23.0000 	   28.1474 
    0.8621 	   22.9385 	   22.0000 	   23.0000 	   28.1804 
    0.8774 	   22.9565 	   22.0000 	   23.0000 	   28.2164 
    0.7553 	   22.9750 	   22.0000 	   23.0000 	   28.2534 
    0.9537 	   22.9955 	   22.0000 	   23.0000 	   28.2944 
    0.8316 	   23.0140 	   22.0000 	   23.0000 	   28.3314 
    0.6638 	   23.0325 	   22.0000 	   23.0000 	   28.3684 
    0.6790 	   23.0540 	   22.0000 	   23.0000 	   28.4114 
    0.7858 	   23.0725 	   22.0000 	   23.0000 	   28.4484 
    0.7401 	   23.0920 	   22.0000 	   23.0000 	   28.4874 
    1.0300 	   23.1110 	   22.0000 	   23.0000 	   28.5254 
    0.9537 	   23.1300 	   22.0000 	   23.0000 	   28.5634 
    0.9995 	   23.1495 	   22.0000 	   23.0000 	   28.6025 
    0.7858 	   23.1670 	   22.0000 	   23.0000 	   28.6375 
    0.8927 	   23.1845 	   22.0000 	   23.0000 	   28.6725 
    0.7706 	   23.2010 	   22.0000 	   23.0000 	   28.7055 
    0.9232 	   23.2190 	   22.0000 	   23.0000 	   28.7415 
    0.5264 	   23.2380 	   22.0000 	   23.0000 	   28.7795 
    0.9537 	   23.2565 	   22.0000 	   23.0000 	   28.8165 
    0.9232 	   23.2745 	   22.0000 	   23.0000 	   28.8525 
    0.6943 	   23.2920 	   22.0000 	   23.0000 	   28.8875 
    0.9384 	   23.3095 	   22.0000 	   23.0000 	   28.9225 
    0.9689 	   23.3265 	   22.0000 	   23.0000 	   28.9565 
    0.8316 	   23.3435 	   22.0000 	   23.0000 	   28.9905 
    0.8774 	   23.3610 	   22.0000 	   23.0000 	   29.0255 
    0.8316 	   23.3780 	   22.0000 	   23.0000 	   29.0595 
    0.8469 	   23.3950 	   22.0000 	   23.0000 	   29.0935 
    0.7858 	   23.4125 	   22.0000 	   23.0000 	   29.1285 
    0.9995 	   23.4295 	   22.0000 	   23.0000 	   29.1625 
    0.9079 	   23.4470 	   22.0000 	   23.0000 	   29.1975 
    1.0452 	   23.4640 	   22.0000 	   23.0000 	   29.2315 
    0.9384 	   23.4815 	   22.0000 	   23.0000 	   29.2665 
    1.2436 	   23.4990 	   22.0000 	   23.0000 	   29.3015 
    0.9537 	   23.5160 	   22.0000 	   23.0000 	   29.3355 
    1.1215 	   23.5340 	   22.0000 	   23.0000 	   29.3715 
    0.8621 	   23.5530 	   22.0000 	   23.0000 	   29.4095 
    0.9232 	   23.5700 	   22.0000 	   23.0000 	   29.4435 
    0.9232 	   23.5865 	   22.0000 	   23.0000 	   29.4765 
    0.9384 	   23.6035 	   22.0000 	   23.0000 	   29.5105 
    0.8164 	   23.6205 	   22.0000 	   23.0000 	   29.5445 
    0.9842 	   23.6370 	   22.0000 	   23.0000 	   29.5775 
    0.7706 	   23.6540 	   22.0000 	   23.0000 	   29.6115 
    0.8774 	   23.6775 	   22.0000 	   23.0000 	   29.6585 
    0.8927 	   23.6925 	   22.0000 	   23.0000 	   29.6885 
    0.8621 	   23.7110 	   22.0000 	   23.0000 	   29.7255 
    0.9079 	   23.7295 	   22.0000 	   23.0000 	   29.7625 
    0.8927 	   23.7480 	   22.0000 	   23.0000 	   29.7995 
    1.0147 	   23.7675 	   22.0000 	   23.0000 	   29.8385 
    0.9842 	   23.7865 	   22.0000 	   23.0000 	   29.8765 
    0.6485 	   23.8045 	   22.0000 	   23.0000 	   29.9125 
    0.9232 	   23.8230 	   22.0000 	   23.0000 	   29.9495 
    0.8927 	   23.8395 	   22.0000 	   23.0000 	   29.9825 
    0.9079 	   23.8575 	   22.0000 	   23.0000 	   30.0185 
    1.0605 	   23.8760 	   22.0000 	   23.0000 	   30.0555 
    1.0147 	   23.8945 	   22.0000 	   23.0000 	   30.0925 
    0.8927 	   23.9150 	   22.0000 	   23.0000 	   30.1335 
    0.8774 	   23.9340 	   22.0000 	   23.0000 	   30.1715 
    0.9537 	   23.9535 	   22.0000 	   23.0000 	   30.2105 
    0.8621 	   23.9720 	   22.0000 	   23.0000 	   30.2475 
    1.1063 	   23.9895 	   22.0000 	   23.0000 	   30.2825 
    0.8774 	   24.0065 	   22.0000 	   23.0000 	   30.3166 
    0.8316 	   24.0235 	   22.0000 	   23.0000 	   30.3506 
    0.8774 	   24.0415 	   22.0000 	   23.0000 	   30.3866 
    0.9537 	   24.0590 	   22.0000 	   23.0000 	   30.4216 
    0.8927 	   24.0765 	   22.0000 	   23.0000 	   30.4566 
    1.0147 	   24.0935 	   22.0000 	   23.0000 	   30.4906 
    0.9079 	   24.1105 	   22.0000 	   23.0000 	   30.5246 
    0.7553 	   24.1280 	   22.0000 	   23.0000 	   30.5596 
    0.9384 	   24.1455 	   22.0000 	   23.0000 	   30.5946 
    1.0452 	   24.1630 	   22.0000 	   23.0000 	   30.6296 
    1.0147 	   24.1800 	   22.0000 	   23.0000 	   30.6636 
    0.9079 	   24.1970 	   22.0000 	   23.0000 	   30.6976 
    0.7706 	   24.2140 	   22.0000 	   23.0000 	   30.7316 
    0.8927 	   24.2310 	   22.0000 	   23.0000 	   30.7656 
    1.0452 	   24.2480 	   22.0000 	   23.0000 	   30.7996 
    0.9537 	   24.2650 	   22.0000 	   23.0000 	   30.8336 
    0.9995 	   24.2820 	   22.0000 	   23.0000 	   30.8676 
    1.0605 	   24.2990 	   22.0000 	   23.0000 	   30.9016 
    0.8621 	   24.3160 	   22.0000 	   23.0000 	   30.9356 
    0.9689 	   24.3330 	   22.0000 	   23.0000 	   30.9696 
    0.8927 	   24.3505 	   22.0000 	   23.0000 	   31.0046 
    0.9384 	   24.3695 	   22.0000 	   23.0000 	   31.0426 
    0.9842 	   24.3905 	   22.0000 	   23.0000 	   31.0846 
    1.1521 	   24.4085 	   22.0000 	   23.0000 	   31.1206 
    1.0147 	   24.4255 	   22.0000 	   23.0000 	   31.1546 
    0.9689 	   24.4440 	   22.0000 	   23.0000 	   31.1916 
    0.9232 	   24.4630 	   22.0000 	   23.0000 	   31.2296 
    1.0147 	   24.4815 	   22.0000 	   23.0000 	   31.2666 
    0.9079 	   24.5005 	   22.0000 	   23.0000 	   31.3046 
    0.9995 	   24.5195 	   22.0000 	   23.0000 	   31.3426 
    0.8164 	   24.5395 	   22.0000 	   23.0000 	   31.3826 
    0.9995 	   24.5565 	   22.0000 	   23.0000 	   31.4166 
    0.8927 	   24.5740 	   22.0000 	   23.0000 	   31.4516 
    1.0452 	   24.5910 	   22.0000 	   23.0000 	   31.4856 
    0.9232 	   24.6085 	   22.0000 	   23.0000 	   31.5206 
    0.9995 	   24.6255 	   22.0000 	   23.0000 	   31.5546 
    0.8927 	   24.6430 	   22.0000 	   23.0000 	   31.5896 
    0.9689 	   24.6605 	   22.0000 	   23.0000 	   31.6246 
    0.9995 	   24.6785 	   22.0000 	   23.0000 	   31.6606 
    1.1063 	   24.6950 	   22.0000 	   23.0000 	   31.6936 
    1.0452 	   24.7125 	   22.0000 	   23.0000 	   31.7286 
    0.8316 	   24.7300 	   22.0000 	   23.0000 	   31.7636 
    1.0300 	   24.7470 	   22.0000 	   23.0000 	   31.7976 
    1.0758 	   24.7645 	   22.0000 	   23.0000 	   31.8326 
    1.0147 	   24.7815 	   22.0000 	   23.0000 	   31.8666 
    0.9689 	   24.7990 	   22.0000 	   23.0000 	   31.9016 
    0.8621 	   24.8155 	   22.0000 	   23.0000 	   31.9346 
    0.8927 	   24.8335 	   22.0000 	   23.0000 	   31.9706 
    1.0452 	   24.8520 	   22.0000 	   23.0000 	   32.0076 
    1.0758 	   24.8705 	   22.0000 	   23.0000 	   32.0446 
    1.0758 	   24.8900 	   22.0000 	   23.0000 	   32.0837 
    0.9384 	   24.9085 	   22.0000 	   23.0000 	   32.1207 
    0.9689 	   24.9275 	   22.0000 	   23.0000 	   32.1587 
    0.9079 	   24.9465 	   22.0000 	   23.0000 	   32.1967 
    1.0910 	   24.9655 	   22.0000 	   23.0000 	   32.2347 
    0.8774 	   24.9850 	   22.0000 	   23.0000 	   32.2737 
    0.9842 	   25.0055 	   22.0000 	   23.0000 	   32.3147 
    1.0452 	   25.0240 	   22.0000 	   23.0000 	   32.3517 
    1.0910 	   25.0455 	   22.0000 	   23.0000 	   32.3947 
    0.9842 	   25.0625 	   22.0000 	   23.0000 	   32.4287 
    0.9232 	   25.0795 	   22.0000 	   23.0000 	   32.4627 
    1.0300 	   25.0975 	   22.0000 	   23.0000 	   32.4987 
    0.9689 	   25.1175 	   22.0000 	   23.0000 	   32.5387 
    0.8927 	   25.1365 	   22.0000 	   23.0000 	   32.5767 
    1.0300 	   25.1570 	   22.0000 	   23.0000 	   32.6177 
    1.0300 	   25.1750 	   22.0000 	   23.0000 	   32.6537 
    0.9842 	   25.1945 	   22.0000 	   23.0000 	   32.6927 
    0.9384 	   25.2140 	   22.0000 	   23.0000 	   32.7317 
    1.1063 	   25.2335 	   22.0000 	   23.0000 	   32.7707 
    1.0910 	   25.2525 	   22.0000 	   23.0000 	   32.8087 
    0.8927 	   25.2705 	   22.0000 	   23.0000 	   32.8447 
    1.1063 	   25.2900 	   22.0000 	   23.0000 	   32.8837 
    0.9689 	   25.3100 	   22.0000 	   23.0000 	   32.9237 
    1.0605 	   25.3290 	   22.0000 	   23.0000 	   32.9617 
    0.9995 	   25.3495 	   22.0000 	   23.0000 	   33.0027 
    1.1063 	   25.3690 	   22.0000 	   23.0000 	   33.0417 
    1.1521 	   25.3880 	   22.0000 	   23.0000 	   33.0797 
    1.0147 	   25.4065 	   22.0000 	   23.0000 	   33.1167 
    0.9995 	   25.4255 	   22.0000 	   23.0000 	   33.1547 
    0.9537 	   25.4455 	   22.0000 	   23.0000 	   33.1947 
    1.0300 	   25.4650 	   22.0000 	   23.0000 	   33.2337 
    0.9384 	   25.4840 	   22.0000 	   23.0000 	   33.2717 
    0.6790 	   25.5040 	   22.0000 	   23.0000 	   33.3117 
    1.1215 	   25.5230 	   22.0000 	   23.0000 	   33.3497 
    0.8469 	   25.5440 	   22.0000 	   23.0000 	   33.3917 
    1.1978 	   25.5625 	   22.0000 	   23.0000 	   33.4287 
    1.0758 	   25.5820 	   22.0000 	   23.0000 	   33.4677 
    0.9842 	   25.6020 	   22.0000 	   23.0000 	   33.5077 
    0.9537 	   25.6215 	   22.0000 	   23.0000 	   33.5467 
    0.9842 	   25.6415 	   22.0000 	   23.0000 	   33.5857 
    1.0758 	   25.6605 	   22.0000 	   23.0000 	   33.6237 
    0.9537 	   25.6790 	   22.0000 	   23.0000 	   33.6607 
    1.0300 	   25.6985 	   22.0000 	   23.0000 	   33.6997 
    1.1063 	   25.7170 	   22.0000 	   23.0000 	   33.7367 
    1.0300 	   25.7365 	   22.0000 	   23.0000 	   33.7757 
    1.0758 	   25.7565 	   22.0000 	   23.0000 	   33.8158 
    1.1368 	   25.7755 	   22.0000 	   23.0000 	   33.8538 
    1.0452 	   25.7950 	   22.0000 	   23.0000 	   33.8928 
    0.9384 	   25.8140 	   22.0000 	   23.0000 	   33.9308 
    1.2436 	   25.8335 	   22.0000 	   23.0000 	   33.9698 
    1.0605 	   25.8525 	   22.0000 	   23.0000 	   34.0078 
    1.1063 	   25.8715 	   22.0000 	   23.0000 	   34.0458 
    1.0910 	   25.8915 	   22.0000 	   23.0000 	   34.0858 
    0.7095 	   25.9110 	   22.0000 	   23.0000 	   34.1248 
    1.0300 	   25.9305 	   22.0000 	   23.0000 	   34.1638 
    0.9995 	   25.9495 	   22.0000 	   23.0000 	   34.2018 
    1.0300 	   25.9685 	   22.0000 	   23.0000 	   34.2398 
    1.0605 	   25.9885 	   22.0000 	   23.0000 	   34.2798 
    1.0452 	   26.0070 	   22.0000 	   23.0000 	   34.3168 
    1.1826 	   26.0270 	   22.0000 	   23.0000 	   34.3568 
    1.0758 	   26.0490 	   22.0000 	   23.0000 	   34.4008 
    0.9995 	   26.0685 	   22.0000 	   23.0000 	   34.4398 
    0.9995 	   26.0870 	   22.0000 	   23.0000 	   34.4768 
    0.9995 	   26.1050 	   22.0000 	   23.0000 	   34.5128 
    0.9995 	   26.1230 	   22.0000 	   23.0000 	   34.5488 
    1.1978 	   26.1425 	   22.0000 	   23.0000 	   34.5878 
    1.0910 	   26.1615 	   22.0000 	   23.0000 	   34.6258 
    1.0147 	   26.1815 	   22.0000 	   23.0000 	   34.6658 
    0.9384 	   26.2010 	   22.0000 	   23.0000 	   34.7048 
    0.6638 	   26.2200 	   22.0000 	   23.0000 	   34.7428 
    0.9537 	   26.2390 	   22.0000 	   23.0000 	   34.7808 
    1.0605 	   26.2570 	   22.0000 	   23.0000 	   34.8168 
    1.0910 	   26.2770 	   22.0000 	   23.0000 	   34.8568 
    1.0147 	   26.2965 	   22.0000 	   23.0000 	   34.8958 
    1.0147 	   26.3160 	   22.0000 	   23.0000 	   34.9348 
    0.9995 	   26.3350 	   22.0000 	   23.0000 	   34.9728 
    1.2436 	   26.3560 	   22.0000 	   23.0000 	   35.0148 
    1.0605 	   26.3750 	   22.0000 	   23.0000 	   35.0528 
    1.2284 	   26.3940 	   22.0000 	   23.0000 	   35.0908 
    0.9689 	   26.4135 	   22.0000 	   23.0000 	   35.1298 
    1.0452 	   26.4330 	   22.0000 	   23.0000 	   35.1688 
    0.8621 	   26.4540 	   22.0000 	   23.0000 	   35.2108 
    1.0605 	   26.4740 	   22.0000 	   23.0000 	   35.2508 
    1.1521 	   26.4920 	   22.0000 	   23.0000 	   35.2868 
    1.1368 	   26.5115 	   22.0000 	   23.0000 	   35.3258 
    1.0605 	   26.5310 	   22.0000 	   23.0000 	   35.3648 
    1.0300 	   26.5520 	   22.0000 	   23.0000 	   35.4068 
    1.1368 	   26.5710 	   22.0000 	   23.0000 	   35.4448 
    1.1063 	   26.5920 	   22.0000 	   23.0000 	   35.4868 
    1.3046 	   26.6120 	   22.0000 	   23.0000 	   35.5268 
    1.0758 	   26.6310 	   22.0000 	   23.0000 	   35.5648 
    0.9995 	   26.6510 	   22.0000 	   23.0000 	   35.6049 
    1.0452 	   26.6780 	   22.0000 	   23.0000 	   35.6589 
    0.9232 	   26.6950 	   22.0000 	   23.0000 	   35.6929 
    1.1215 	   26.7150 	   22.0000 	   23.0000 	   35.7329 
    0.9842 	   26.7350 	   22.0000 	   23.0000 	   35.7729 
    0.9537 	   26.7550 	   22.0000 	   23.0000 	   35.8129 
    1.2436 	   26.7730 	   22.0000 	   23.0000 	   35.8489 
    1.0452 	   26.7920 	   22.0000 	   23.0000 	   35.8869 
    1.1063 	   26.8105 	   22.0000 	   23.0000 	   35.9239 
    1.0605 	   26.8295 	   22.0000 	   23.0000 	   35.9619 
    1.0910 	   26.8485 	   22.0000 	   23.0000 	   35.9999 
    1.0910 	   26.8685 	   22.0000 	   23.0000 	   36.0399 
    1.1673 	   26.8870 	   22.0000 	   23.0000 	   36.0769 
    1.0300 	   26.9065 	   22.0000 	   23.0000 	   36.1159 
    1.0758 	   26.9260 	   22.0000 	   23.0000 	   36.1549 
    1.0452 	   26.9450 	   22.0000 	   23.0000 	   36.1929 
    1.0300 	   26.9640 	   22.0000 	   23.0000 	   36.2309 
    1.0452 	   26.9835 	   22.0000 	   23.0000 	   36.2699 
    1.1673 	   27.0015 	   22.0000 	   23.0000 	   36.3059 
    1.0147 	   27.0200 	   22.0000 	   23.0000 	   36.3429 
    1.0605 	   27.0415 	   22.0000 	   23.0000 	   36.3859 
    0.7095 	   27.0595 	   22.0000 	   23.0000 	   36.4219 
    1.1368 	   27.0785 	   22.0000 	   23.0000 	   36.4599 
    1.1826 	   27.0975 	   22.0000 	   23.0000 	   36.4979 
    1.1368 	   27.1165 	   22.0000 	   23.0000 	   36.5359 
    1.0605 	   27.1365 	   22.0000 	   23.0000 	   36.5759 
    0.9842 	   27.1545 	   22.0000 	   23.0000 	   36.6119 
    1.0910 	   27.1735 	   22.0000 	   23.0000 	   36.6499 
    1.0452 	   27.1930 	   22.0000 	   23.0000 	   36.6889 
    1.0452 	   27.2130 	   22.0000 	   23.0000 	   36.7289 
    1.1215 	   27.2320 	   22.0000 	   23.0000 	   36.7669 
    1.2131 	   27.2515 	   22.0000 	   23.0000 	   36.8049 
    1.0758 	   27.2725 	   22.0000 	   23.0000 	   36.8479 
    1.0452 	   27.2915 	   22.0000 	   23.0000 	   36.8859 
    1.1521 	   27.3110 	   22.0000 	   23.0000 	   36.9249 
    1.0300 	   27.3305 	   22.0000 	   23.0000 	   36.9639 
    1.1521 	   27.3490 	   22.0000 	   23.0000 	   37.0009 
    1.0605 	   27.3680 	   22.0000 	   23.0000 	   37.0389 
    1.2131 	   27.3870 	   22.0000 	   23.0000 	   37.0769 
    1.1368 	   27.4065 	   22.0000 	   23.0000 	   37.1159 
    1.0605 	   27.4265 	   22.0000 	   23.0000 	   37.1559 
    1.1063 	   27.4455 	   22.0000 	   23.0000 	   37.1939 
    0.9842 	   27.4645 	   22.0000 	   23.0000 	   37.2319 
    1.0758 	   27.4840 	   22.0000 	   23.0000 	   37.2709 
    1.2589 	   27.5030 	   22.0000 	   23.0000 	   37.3089 
    0.6638 	   27.5230 	   22.0000 	   23.0000 	   37.3490 
    1.2284 	   27.5430 	   22.0000 	   23.0000 	   37.3890 
    1.0452 	   27.5625 	   22.0000 	   23.0000 	   37.4280 
    1.2131 	   27.5820 	   22.0000 	   23.0000 	   37.4670 
    1.1215 	   27.6025 	   22.0000 	   23.0000 	   37.5080 
    1.0147 	   27.6235 	   22.0000 	   23.0000 	   37.5500 
    1.1368 	   27.6420 	   22.0000 	   23.0000 	   37.5870 
    1.0910 	   27.6615 	   22.0000 	   23.0000 	   37.6260 
    1.2131 	   27.6815 	   22.0000 	   23.0000 	   37.6660 
    1.1215 	   27.7000 	   22.0000 	   23.0000 	   37.7030 
    1.1063 	   27.7185 	   22.0000 	   23.0000 	   37.7400 
    1.0910 	   27.7380 	   22.0000 	   23.0000 	   37.7790 
    1.0452 	   27.7565 	   22.0000 	   23.0000 	   37.8160 
    1.1215 	   27.7755 	   22.0000 	   23.0000 	   37.8540 
    1.1978 	   27.7945 	   22.0000 	   23.0000 	   37.8920 
    1.1673 	   27.8140 	   22.0000 	   23.0000 	   37.9310 
    1.1368 	   27.8325 	   22.0000 	   23.0000 	   37.9680 
    1.1063 	   27.8520 	   22.0000 	   23.0000 	   38.0070 
    1.1368 	   27.8710 	   22.0000 	   23.0000 	   38.0450 
    1.1521 	   27.8890 	   22.0000 	   23.0000 	   38.0810 
    1.1521 	   27.9085 	   22.0000 	   23.0000 	   38.1200 
    1.1063 	   27.9275 	   22.0000 	   23.0000 	   38.1580 
    1.2436 	   27.9465 	   22.0000 	   23.0000 	   38.1960 
    1.1521 	   27.9635 	   22.0000 	   23.0000 	   38.2300 
    1.1673 	   27.9820 	   22.0000 	   23.0000 	   38.2670 
    1.1978 	   27.9995 	   22.0000 	   23.0000 	   38.3020 
    1.0452 	   28.0170 	   22.0000 	   23.0000 	   38.3370 
    0.8774 	   28.0345 	   22.0000 	   23.0000 	   38.3720 
    1.1063 	   28.0540 	   22.0000 	   23.0000 	   38.4110 
    1.2589 	   28.0705 	   22.0000 	   23.0000 	   38.4440 
    1.0605 	   28.0895 	   22.0000 	   23.0000 	   38.4820 
    1.1368 	   28.1085 	   22.0000 	   23.0000 	   38.5200 
    1.0605 	   28.1275 	   22.0000 	   23.0000 	   38.5580 
    1.1978 	   28.1465 	   22.0000 	   23.0000 	   38.5960 
    1.1673 	   28.1655 	   22.0000 	   23.0000 	   38.6340 
    1.2589 	   28.1865 	   22.0000 	   23.0000 	   38.6760 
    1.0758 	   28.2060 	   22.0000 	   23.0000 	   38.7150 
    1.2131 	   28.2255 	   22.0000 	   23.0000 	   38.7540 
    1.2131 	   28.2460 	   22.0000 	   23.0000 	   38.7950 
    1.1215 	   28.2645 	   22.0000 	   23.0000 	   38.8320 
    1.2436 	   28.2840 	   22.0000 	   23.0000 	   38.8710 
    1.2436 	   28.3045 	   22.0000 	   23.0000 	   38.9120 
    1.1673 	   28.3230 	   22.0000 	   23.0000 	   38.9490 
    1.1368 	   28.3425 	   22.0000 	   23.0000 	   38.9880 
    1.1978 	   28.3590 	   22.0000 	   23.0000 	   39.0210 
    1.1978 	   28.3785 	   22.0000 	   23.0000 	   39.0601 
    1.0910 	   28.3965 	   22.0000 	   23.0000 	   39.0961 
    1.1673 	   28.4175 	   22.0000 	   23.0000 	   39.1381 
    1.1826 	   28.4375 	   22.0000 	   23.0000 	   39.1781 
    1.0758 	   28.4570 	   22.0000 	   23.0000 	   39.2171 
    1.1826 	   28.4760 	   22.0000 	   23.0000 	   39.2551 
    1.1215 	   28.4955 	   22.0000 	   23.0000 	   39.2941 
    1.1063 	   28.5145 	   22.0000 	   23.0000 	   39.3321 
    1.2589 	   28.5355 	   22.0000 	   23.0000 	   39.3741 
    1.1215 	   28.5565 	   22.0000 	   23.0000 	   39.4161 
    1.1673 	   28.5755 	   22.0000 	   23.0000 	   39.4541 
    1.1521 	   28.5935 	   22.0000 	   23.0000 	   39.4901 
    1.2131 	   28.6120 	   22.0000 	   23.0000 	   39.5271 
    1.1521 	   28.6295 	   22.0000 	   23.0000 	   39.5621 
    1.1673 	   28.6490 	   22.0000 	   23.0000 	   39.6011 
    1.2284 	   28.6680 	   22.0000 	   23.0000 	   39.6391 
    1.2589 	   28.6860 	   22.0000 	   23.0000 	   39.6751 
    1.2894 	   28.7050 	   22.0000 	   23.0000 	   39.7131 
    1.2131 	   28.7240 	   22.0000 	   23.0000 	   39.7511 
    1.1826 	   28.7440 	   22.0000 	   23.0000 	   39.7911 
    1.3504 	   28.7625 	   22.0000 	   23.0000 	   39.8281 
    1.1063 	   28.7815 	   22.0000 	   23.0000 	   39.8661 
    1.1826 	   28.8010 	   22.0000 	   23.0000 	   39.9051 
    1.2894 	   28.8210 	   22.0000 	   23.0000 	   39.9451 
    1.1063 	   28.8405 	   22.0000 	   23.0000 	   39.9841 
    1.2131 	   28.8610 	   22.0000 	   23.0000 	   40.0251 
    1.2894 	   28.8800 	   22.0000 	   23.0000 	   40.0631 
    1.1368 	   28.8995 	   22.0000 	   23.0000 	   40.1021 
    1.1826 	   28.9195 	   22.0000 	   23.0000 	   40.1421 
    1.2284 	   28.9405 	   22.0000 	   23.0000 	   40.1841 
    1.1826 	   28.9585 	   22.0000 	   23.0000 	   40.2201 
    1.1063 	   28.9785 	   22.0000 	   23.0000 	   40.2601 
    1.2894 	   28.9980 	   22.0000 	   23.0000 	   40.2991 
    1.1368 	   29.0175 	   22.0000 	   23.0000 	   40.3381 
    1.2741 	   29.0375 	   22.0000 	   23.0000 	   40.3781 
    1.3352 	   29.0585 	   22.0000 	   23.0000 	   40.4201 
    1.1673 	   29.0780 	   22.0000 	   23.0000 	   40.4591 
    1.1215 	   29.0970 	   22.0000 	   23.0000 	   40.4971 
    1.2436 	   29.1165 	   22.0000 	   23.0000 	   40.5361 
    1.1368 	   29.1360 	   22.0000 	   23.0000 	   40.5751 
    1.2589 	   29.1550 	   22.0000 	   23.0000 	   40.6131 
    1.2589 	   29.1740 	   22.0000 	   23.0000 	   40.6511 
    1.3199 	   29.1950 	   22.0000 	   23.0000 	   40.6931 
    1.1826 	   29.2145 	   22.0000 	   23.0000 	   40.7321 
    1.2131 	   29.2695 	   22.0000 	   23.0000 	   40.8422 
    1.2131 	   29.2900 	   22.0000 	   23.0000 	   40.8832 
    1.3046 	   29.3065 	   22.0000 	   23.0000 	   40.9162 
    1.1826 	   29.3255 	   22.0000 	   23.0000 	   40.9542 
    1.2436 	   29.3450 	   22.0000 	   23.0000 	   40.9932 
    1.1368 	   29.3650 	   22.0000 	   23.0000 	   41.0332 
    1.3504 	   29.3845 	   22.0000 	   23.0000 	   41.0722 
    1.3199 	   29.4055 	   22.0000 	   23.0000 	   41.1142 
    0.9842 	   29.4250 	   22.0000 	   23.0000 	   41.1532 
    1.3046 	   29.4435 	   22.0000 	   23.0000 	   41.1902 
    1.1521 	   29.4630 	   22.0000 	   23.0000 	   41.2292 
    1.0147 	   29.4845 	   22.0000 	   23.0000 	   41.2722 
    1.1368 	   29.5030 	   22.0000 	   23.0000 	   41.3092 
    1.3046 	   29.5205 	   22.0000 	   23.0000 	   41.3442 
    1.3352 	   29.5385 	   22.0000 	   23.0000 	   41.3802 
    1.3809 	   29.5565 	   22.0000 	   23.0000 	   41.4162 
    1.4267 	   29.5740 	   22.0000 	   23.0000 	   41.4512 
    1.3504 	   29.5925 	   22.0000 	   23.0000 	   41.4882 
    1.1673 	   29.6135 	   22.0000 	   23.0000 	   41.5302 
    1.1978 	   29.6335 	   22.0000 	   23.0000 	   41.5702 
    1.0758 	   29.6525 	   22.0000 	   23.0000 	   41.6082 
    1.2589 	   29.6775 	   22.0000 	   23.0000 	   41.6582 
    1.3046 	   29.6965 	   22.0000 	   23.0000 	   41.6962 
    1.3504 	   29.7165 	   22.0000 	   23.0000 	   41.7362 
    1.2741 	   29.7365 	   22.0000 	   23.0000 	   41.7762 
    1.2284 	   29.7560 	   22.0000 	   23.0000 	   41.8152 
    1.2894 	   29.7760 	   22.0000 	   23.0000 	   41.8552 
    1.2284 	   29.7960 	   22.0000 	   23.0000 	   41.8952 
    1.1673 	   29.8160 	   22.0000 	   23.0000 	   41.9352 
    1.3199 	   29.8360 	   22.0000 	   23.0000 	   41.9752 
    1.4725 	   29.8560 	   22.0000 	   23.0000 	   42.0152 
    1.2589 	   29.8760 	   22.0000 	   23.0000 	   42.0552 
    1.1826 	   29.8945 	   22.0000 	   23.0000 	   42.0922 
    1.1673 	   29.9145 	   22.0000 	   23.0000 	   42.1322 
    1.2284 	   29.9335 	   22.0000 	   23.0000 	   42.1702 
    1.3504 	   29.9535 	   22.0000 	   23.0000 	   42.2102 
    1.4115 	   29.9720 	   22.0000 	   23.0000 	   42.2472 
    1.1673 	   29.9915 	   22.0000 	   23.0000 	   42.2862 
    1.2436 	   30.0105 	   22.0000 	   23.0000 	   42.3242 
    1.3962 	   30.0295 	   22.0000 	   23.0000 	   42.3622 
    1.0452 	   30.0515 	   22.0000 	   23.0000 	   42.4062 
    1.2436 	   30.0705 	   22.0000 	   23.0000 	   42.4442 
    1.4115 	   30.0915 	   22.0000 	   23.0000 	   42.4862 
    1.2589 	   30.1105 	   22.0000 	   23.0000 	   42.5242 
    1.3352 	   30.1300 	   22.0000 	   23.0000 	   42.5633 
    1.1673 	   30.1515 	   22.0000 	   23.0000 	   42.6063 
    1.1368 	   30.1715 	   22.0000 	   23.0000 	   42.6463 
    1.3809 	   30.1915 	   22.0000 	   23.0000 	   42.6863 
    1.3199 	   30.2115 	   22.0000 	   23.0000 	   42.7263 
    1.4267 	   30.2310 	   22.0000 	   23.0000 	   42.7653 
    1.3657 	   30.2510 	   22.0000 	   23.0000 	   42.8053 
    1.3199 	   30.2720 	   22.0000 	   23.0000 	   42.8473 
    1.3962 	   30.2915 	   22.0000 	   23.0000 	   42.8863 
    1.2131 	   30.3105 	   22.0000 	   23.0000 	   42.9243 
    1.3199 	   30.3310 	   22.0000 	   23.0000 	   42.9653 
    1.2284 	   30.3505 	   22.0000 	   23.0000 	   43.0043 
    1.3199 	   30.3705 	   22.0000 	   23.0000 	   43.0443 
    1.2741 	   30.3905 	   22.0000 	   23.0000 	   43.0843 
    1.2589 	   30.4100 	   22.0000 	   23.0000 	   43.1233 
    1.2894 	   30.4290 	   22.0000 	   23.0000 	   43.1613 
    1.3199 	   30.4485 	   22.0000 	   23.0000 	   43.2003 
    1.3657 	   30.4685 	   22.0000 	   23.0000 	   43.2403 
    1.3504 	   30.4875 	   22.0000 	   23.0000 	   43.2783 
    1.0452 	   30.5070 	   22.0000 	   23.0000 	   43.3173 
    1.1521 	   30.5265 	   22.0000 	   23.0000 	   43.3563 
    1.2741 	   30.5465 	   22.0000 	   23.0000 	   43.3963 
    1.1673 	   30.5670 	   22.0000 	   23.0000 	   43.4373 
    1.2741 	   30.5865 	   22.0000 	   23.0000 	   43.4763 
    1.2741 	   30.6060 	   22.0000 	   23.0000 	   43.5153 
    1.2741 	   30.6250 	   22.0000 	   23.0000 	   43.5533 
    1.2589 	   30.6450 	   22.0000 	   23.0000 	   43.5933 
    1.3046 	   30.6640 	   22.0000 	   23.0000 	   43.6313 
    1.3046 	   30.6850 	   22.0000 	   23.0000 	   43.6733 
    1.4420 	   30.7055 	   22.0000 	   23.0000 	   43.7143 
    1.1673 	   30.7250 	   22.0000 	   23.0000 	   43.7533 
    1.2436 	   30.7440 	   22.0000 	   23.0000 	   43.7913 
    1.3352 	   30.7625 	   22.0000 	   23.0000 	   43.8283 
    1.1368 	   30.7815 	   22.0000 	   23.0000 	   43.8663 
    1.2894 	   30.8010 	   22.0000 	   23.0000 	   43.9053 
    1.3504 	   30.8210 	   22.0000 	   23.0000 	   43.9453 
    1.3352 	   30.8405 	   22.0000 	   23.0000 	   43.9843 
    1.2589 	   30.8615 	   22.0000 	   23.0000 	   44.0263 
    1.1978 	   30.8810 	   22.0000 	   23.0000 	   44.0653 
    1.1673 	   30.9010 	   22.0000 	   23.0000 	   44.1053 
    1.3962 	   30.9205 	   22.0000 	   23.0000 	   44.1443 
    0.9842 	   30.9400 	   22.0000 	   23.0000 	   44.1833 
    1.0758 	   30.9595 	   22.0000 	   23.0000 	   44.2223 
    1.1978 	   30.9795 	   22.0000 	   23.0000 	   44.2623 
    1.3657 	   30.9995 	   22.0000 	   23.0000 	   44.3023 
    1.4420 	   31.0195 	   22.0000 	   23.0000 	   44.3424 
    1.2131 	   31.0395 	   22.0000 	   23.0000 	   44.3824 
    1.4267 	   31.0610 	   22.0000 	   23.0000 	   44.4254 
    1.3657 	   31.0800 	   22.0000 	   23.0000 	   44.4634 
    1.2436 	   31.0985 	   22.0000 	   23.0000 	   44.5004 
    0.9995 	   31.1170 	   22.0000 	   23.0000 	   44.5374 
    1.1368 	   31.1370 	   22.0000 	   23.0000 	   44.5774 
    1.2284 	   31.1565 	   22.0000 	   23.0000 	   44.6164 
    1.2589 	   31.1750 	   22.0000 	   23.0000 	   44.6534 
    1.3657 	   31.1950 	   22.0000 	   23.0000 	   44.6934 
    1.5640 	   31.2160 	   22.0000 	   23.0000 	   44.7354 
    1.3809 	   31.2360 	   22.0000 	   23.0000 	   44.7754 
    1.3962 	   31.2565 	   22.0000 	   23.0000 	   44.8164 
    1.2589 	   31.2760 	   22.0000 	   23.0000 	   44.8554 
    1.2589 	   31.2955 	   22.0000 	   23.0000 	   44.8944 
    1.4267 	   31.3150 	   22.0000 	   23.0000 	   44.9334 
    1.1673 	   31.3345 	   22.0000 	   23.0000 	   44.9724 
    1.4115 	   31.3550 	   22.0000 	   23.0000 	   45.0134 
    1.3809 	   31.3750 	   22.0000 	   23.0000 	   45.0534 
    1.3657 	   31.3950 	   22.0000 	   23.0000 	   45.0934 
    1.2894 	   31.4150 	   22.0000 	   23.0000 	   45.1334 
    1.3809 	   31.4340 	   22.0000 	   23.0000 	   45.1714 
    1.3809 	   31.4535 	   22.0000 	   23.0000 	   45.2104 
    1.4267 	   31.4740 	   22.0000 	   23.0000 	   45.2514 
    1.4115 	   31.4935 	   22.0000 	   23.0000 	   45.2904 
    1.4420 	   31.5145 	   22.0000 	   23.0000 	   45.3324 
    1.6098 	   31.5350 	   22.0000 	   23.0000 	   45.3734 
    1.3657 	   31.5570 	   22.0000 	   23.0000 	   45.4174 
    1.3809 	   31.5770 	   22.0000 	   23.0000 	   45.4574 
    1.4725 	   31.5975 	   22.0000 	   23.0000 	   45.4984 
    1.3352 	   31.6160 	   22.0000 	   23.0000 	   45.5354 
    1.3352 	   31.6350 	   22.0000 	   23.0000 	   45.5734 
    1.3657 	   31.6535 	   22.0000 	   23.0000 	   45.6104 
    1.3809 	   31.6775 	   22.0000 	   23.0000 	   45.6584 
    1.3962 	   31.6995 	   22.0000 	   23.0000 	   45.7024 
    1.0605 	   31.7190 	   22.0000 	   23.0000 	   45.7414 
    1.3809 	   31.7390 	   22.0000 	   23.0000 	   45.7814 
    1.2894 	   31.7585 	   22.0000 	   23.0000 	   45.8204 
    1.3809 	   31.7770 	   22.0000 	   23.0000 	   45.8574 
    1.3962 	   31.7980 	   22.0000 	   23.0000 	   45.8994 
    1.4572 	   31.8175 	   22.0000 	   23.0000 	   45.9384 
    1.3657 	   31.8365 	   22.0000 	   23.0000 	   45.9764 
    1.3962 	   31.8560 	   22.0000 	   23.0000 	   46.0154 
    1.4267 	   31.8755 	   22.0000 	   23.0000 	   46.0545 
    1.5488 	   31.8950 	   22.0000 	   23.0000 	   46.0935 
    1.4725 	   31.9145 	   22.0000 	   23.0000 	   46.1325 
    1.3046 	   31.9355 	   22.0000 	   23.0000 	   46.1745 
    1.4115 	   31.9540 	   22.0000 	   23.0000 	   46.2115 
    1.3199 	   31.9735 	   22.0000 	   23.0000 	   46.2505 
    1.4115 	   31.9930 	   22.0000 	   23.0000 	   46.2895 
    1.3962 	   32.0120 	   22.0000 	   23.0000 	   46.3275 
    1.5335 	   32.0315 	   22.0000 	   23.0000 	   46.3665 
    1.4878 	   32.0525 	   22.0000 	   23.0000 	   46.4085 
    1.1368 	   32.0720 	   22.0000 	   23.0000 	   46.4475 
    1.5183 	   32.0915 	   22.0000 	   23.0000 	   46.4865 
    1.3046 	   32.1105 	   22.0000 	   23.0000 	   46.5245 
    1.3352 	   32.1320 	   22.0000 	   23.0000 	   46.5675 
    1.3962 	   32.1505 	   22.0000 	   23.0000 	   46.6045 
    1.3809 	   32.1710 	   22.0000 	   23.0000 	   46.6455 
    1.3199 	   32.1915 	   22.0000 	   23.0000 	   46.6865 
    1.3504 	   32.2110 	   22.0000 	   23.0000 	   46.7255 
    1.3809 	   32.2310 	   22.0000 	   23.0000 	   46.7655 
    1.4725 	   32.2505 	   22.0000 	   23.0000 	   46.8045 
    1.3657 	   32.2705 	   22.0000 	   23.0000 	   46.8445 
    1.4572 	   32.2900 	   22.0000 	   23.0000 	   46.8835 
    1.5335 	   32.3100 	   22.0000 	   23.0000 	   46.9235 
    1.5488 	   32.3290 	   22.0000 	   23.0000 	   46.9615 
    1.4878 	   32.3490 	   22.0000 	   23.0000 	   47.0015 
    1.6861 	   32.3680 	   22.0000 	   23.0000 	   47.0395 
    1.4115 	   32.3880 	   22.0000 	   23.0000 	   47.0795 
    1.3504 	   32.4070 	   22.0000 	   23.0000 	   47.1175 
    1.4725 	   32.4245 	   22.0000 	   23.0000 	   47.1525 
    1.4420 	   32.4435 	   22.0000 	   23.0000 	   47.1905 
    1.4267 	   32.4620 	   22.0000 	   23.0000 	   47.2275 
    1.5946 	   32.4800 	   22.0000 	   23.0000 	   47.2635 
    1.5030 	   32.4980 	   22.0000 	   23.0000 	   47.2995 
    1.5030 	   32.5155 	   22.0000 	   23.0000 	   47.3345 
    1.5335 	   32.5335 	   22.0000 	   23.0000 	   47.3705 
    1.1673 	   32.5520 	   22.0000 	   23.0000 	   47.4075 
    1.3352 	   32.5705 	   22.0000 	   23.0000 	   47.4445 
    1.4572 	   32.5880 	   22.0000 	   23.0000 	   47.4795 
    1.2436 	   32.6070 	   22.0000 	   23.0000 	   47.5175 
    1.4115 	   32.6250 	   22.0000 	   23.0000 	   47.5535 
    1.3809 	   32.6425 	   22.0000 	   23.0000 	   47.5885 
    1.5183 	   32.6615 	   22.0000 	   23.0000 	   47.6265 
    1.5335 	   32.6800 	   22.0000 	   23.0000 	   47.6635 
    1.3199 	   32.7005 	   22.0000 	   23.0000 	   47.7045 
    1.4115 	   32.7195 	   22.0000 	   23.0000 	   47.7425 
    1.1673 	   32.7405 	   22.0000 	   23.0000 	   47.7845 
    1.5640 	   32.7600 	   22.0000 	   23.0000 	   47.8236 
    1.4725 	   32.7805 	   22.0000 	   23.0000 	   47.8646 
    1.4115 	   32.8010 	   22.0000 	   23.0000 	   47.9056 
    1.4878 	   32.8210 	   22.0000 	   23.0000 	   47.9456 
    1.4420 	   32.8410 	   22.0000 	   23.0000 	   47.9856 
    1.5640 	   32.8605 	   22.0000 	   23.0000 	   48.0246 
    1.3962 	   32.8805 	   22.0000 	   23.0000 	   48.0646 
    1.5335 	   32.9010 	   22.0000 	   23.0000 	   48.1056 
    1.4420 	   32.9205 	   22.0000 	   23.0000 	   48.1446 
    1.5030 	   32.9405 	   22.0000 	   23.0000 	   48.1846 
    1.4878 	   32.9600 	   22.0000 	   23.0000 	   48.2236 
    1.5488 	   32.9795 	   22.0000 	   23.0000 	   48.2626 
    1.5183 	   32.9985 	   22.0000 	   23.0000 	   48.3006 
    1.5488 	   33.0190 	   22.0000 	   23.0000 	   48.3416 
    1.5183 	   33.0405 	   22.0000 	   23.0000 	   48.3846 
    1.5640 	   33.0615 	   22.0000 	   23.0000 	   48.4266 
    1.4725 	   33.0815 	   22.0000 	   23.0000 	   48.4666 
    1.3809 	   33.1005 	   22.0000 	   23.0000 	   48.5046 
    1.4725 	   33.1185 	   22.0000 	   23.0000 	   48.5406 
    1.6251 	   33.1360 	   22.0000 	   23.0000 	   48.5756 
    1.3199 	   33.1540 	   22.0000 	   23.0000 	   48.6116 
    1.4725 	   33.1725 	   22.0000 	   23.0000 	   48.6486 
    1.4878 	   33.1900 	   22.0000 	   23.0000 	   48.6836 
    1.4267 	   33.2080 	   22.0000 	   23.0000 	   48.7196 
    1.4725 	   33.2265 	   22.0000 	   23.0000 	   48.7566 
    1.4115 	   33.2445 	   22.0000 	   23.0000 	   48.7926 
    1.0605 	   33.2630 	   22.0000 	   23.0000 	   48.8296 
    1.6403 	   33.2810 	   22.0000 	   23.0000 	   48.8656 
    1.5335 	   33.2995 	   22.0000 	   23.0000 	   48.9026 
    1.4725 	   33.3180 	   22.0000 	   23.0000 	   48.9396 
    1.4725 	   33.3355 	   22.0000 	   23.0000 	   48.9746 
    1.4878 	   33.3535 	   22.0000 	   23.0000 	   49.0106 
    1.3962 	   33.3720 	   22.0000 	   23.0000 	   49.0476 
    1.2436 	   33.3895 	   22.0000 	   23.0000 	   49.0826 
    1.4420 	   33.4080 	   22.0000 	   23.0000 	   49.1196 
    1.5946 	   33.4260 	   22.0000 	   23.0000 	   49.1556 
    1.5793 	   33.4435 	   22.0000 	   23.0000 	   49.1906 
    1.4725 	   33.4625 	   22.0000 	   23.0000 	   49.2286 
    1.4878 	   33.4820 	   22.0000 	   23.0000 	   49.2676 
    1.5030 	   33.5010 	   22.0000 	   23.0000 	   49.3056 
    1.6861 	   33.5205 	   22.0000 	   23.0000 	   49.3446 
    1.4267 	   33.5410 	   22.0000 	   23.0000 	   49.3856 
    1.3962 	   33.5605 	   22.0000 	   23.0000 	   49.4246 
    1.5488 	   33.5795 	   22.0000 	   23.0000 	   49.4626 
    1.4878 	   33.5985 	   22.0000 	   23.0000 	   49.5006 
    1.2894 	   33.6175 	   22.0000 	   23.0000 	   49.5387 
    1.5335 	   33.6370 	   22.0000 	   23.0000 	   49.5777 
    1.5640 	   33.6570 	   22.0000 	   23.0000 	   49.6177 
    1.5488 	   33.6760 	   22.0000 	   23.0000 	   49.6557 
    1.5335 	   33.6955 	   22.0000 	   23.0000 	   49.6947 
    1.2436 	   33.7150 	   22.0000 	   23.0000 	   49.7337 
    1.5183 	   33.7360 	   22.0000 	   23.0000 	   49.7757 
    1.4878 	   33.7560 	   22.0000 	   23.0000 	   49.8157 
    1.5793 	   33.7760 	   22.0000 	   23.0000 	   49.8557 
    1.6251 	   33.7950 	   22.0000 	   23.0000 	   49.8937 
    1.5335 	   33.8130 	   22.0000 	   23.0000 	   49.9297 
    1.5030 	   33.8310 	   22.0000 	   23.0000 	   49.9657 
    1.4878 	   33.8490 	   22.0000 	   23.0000 	   50.0017 
    1.5488 	   33.8675 	   22.0000 	   23.0000 	   50.0387 
    1.7014 	   33.8850 	   22.0000 	   23.0000 	   50.0737 
    1.5488 	   33.9035 	   22.0000 	   23.0000 	   50.1107 
    1.5183 	   33.9220 	   22.0000 	   23.0000 	   50.1477 
    1.5946 	   33.9410 	   22.0000 	   23.0000 	   50.1857 
    1.5335 	   33.9605 	   22.0000 	   23.0000 	   50.2247 
    1.4420 	   33.9810 	   22.0000 	   23.0000 	   50.2657 
    1.4420 	   34.0005 	   22.0000 	   23.0000 	   50.3047 
    1.4572 	   34.0195 	   22.0000 	   23.0000 	   50.3427 
    1.5335 	   34.0415 	   22.0000 	   23.0000 	   50.3867 
    1.5793 	   34.0610 	   22.0000 	   23.0000 	   50.4257 
    1.7319 	   34.0815 	   22.0000 	   23.0000 	   50.4667 
    1.5640 	   34.1025 	   22.0000 	   23.0000 	   50.5087 
    1.3657 	   34.1220 	   22.0000 	   23.0000 	   50.5477 
    1.5640 	   34.1425 	   22.0000 	   23.0000 	   50.5887 
    1.6251 	   34.1625 	   22.0000 	   23.0000 	   50.6287 
    1.5640 	   34.1820 	   22.0000 	   23.0000 	   50.6677 
    1.4267 	   34.2030 	   22.0000 	   23.0000 	   50.7097 
    1.7472 	   34.2230 	   22.0000 	   23.0000 	   50.7497 
    1.5335 	   34.2435 	   22.0000 	   23.0000 	   50.7907 
    1.6861 	   34.2630 	   22.0000 	   23.0000 	   50.8297 
    1.6403 	   34.2830 	   22.0000 	   23.0000 	   50.8697 
    1.6556 	   34.3030 	   22.0000 	   23.0000 	   50.9097 
    1.5946 	   34.3215 	   22.0000 	   23.0000 	   50.9467 
    1.5335 	   34.3420 	   22.0000 	   23.0000 	   50.9877 
    1.6251 	   34.3620 	   22.0000 	   23.0000 	   51.0277 
    1.5946 	   34.3830 	   22.0000 	   23.0000 	   51.0687 
    1.6709 	   34.4035 	   22.0000 	   23.0000 	   51.1097 
    1.5640 	   34.4230 	   22.0000 	   23.0000 	   51.1487 
    1.5793 	   34.4440 	   22.0000 	   23.0000 	   51.1907 
    1.7014 	   34.4625 	   22.0000 	   23.0000 	   51.2277 
    1.5946 	   34.4810 	   22.0000 	   23.0000 	   51.2647 
    1.5793 	   34.4990 	   22.0000 	   23.0000 	   51.3008 
    1.5946 	   34.5175 	   22.0000 	   23.0000 	   51.3378 
    1.7472 	   34.5355 	   22.0000 	   23.0000 	   51.3738 
    1.5640 	   34.5535 	   22.0000 	   23.0000 	   51.4098 
    1.3352 	   34.5720 	   22.0000 	   23.0000 	   51.4468 
    1.5640 	   34.5895 	   22.0000 	   23.0000 	   51.4818 
    1.7472 	   34.6075 	   22.0000 	   23.0000 	   51.5178 
    1.5640 	   34.6260 	   22.0000 	   23.0000 	   51.5548 
    1.7777 	   34.6445 	   22.0000 	   23.0000 	   51.5918 
    1.5793 	   34.6625 	   22.0000 	   23.0000 	   51.6278 
    1.6403 	   34.6810 	   22.0000 	   23.0000 	   51.6648 
    1.6861 	   34.6985 	   22.0000 	   23.0000 	   51.6998 
    1.5030 	   34.7165 	   22.0000 	   23.0000 	   51.7358 
    1.5183 	   34.7355 	   22.0000 	   23.0000 	   51.7738 
    1.5488 	   34.7560 	   22.0000 	   23.0000 	   51.8148 
    1.7014 	   34.7750 	   22.0000 	   23.0000 	   51.8528 
    1.6709 	   34.7955 	   22.0000 	   23.0000 	   51.8938 
    1.4878 	   34.8155 	   22.0000 	   23.0000 	   51.9338 
    1.6861 	   34.8355 	   22.0000 	   23.0000 	   51.9738 
    1.6709 	   34.8550 	   22.0000 	   23.0000 	   52.0128 
    1.7472 	   34.8750 	   22.0000 	   23.0000 	   52.0528 
    1.5335 	   34.8950 	   22.0000 	   23.0000 	   52.0928 
    1.5793 	   34.9155 	   22.0000 	   23.0000 	   52.1338 
    1.5488 	   34.9360 	   22.0000 	   23.0000 	   52.1748 
    1.6861 	   34.9555 	   22.0000 	   23.0000 	   52.2138 
    1.5946 	   34.9750 	   22.0000 	   23.0000 	   52.2528 
    1.6403 	   34.9960 	   22.0000 	   23.0000 	   52.2948 
    1.5640 	   35.0160 	   22.0000 	   23.0000 	   52.3348 
    1.6098 	   35.0370 	   22.0000 	   23.0000 	   52.3768 
    1.6556 	   35.0590 	   22.0000 	   23.0000 	   52.4208 
    1.5793 	   35.0785 	   22.0000 	   23.0000 	   52.4598 
    1.4267 	   35.0990 	   22.0000 	   23.0000 	   52.5008 
    1.6709 	   35.1200 	   22.0000 	   23.0000 	   52.5428 
    1.5488 	   35.1400 	   22.0000 	   23.0000 	   52.5828 
    1.7014 	   35.1590 	   22.0000 	   23.0000 	   52.6208 
    1.6251 	   35.1780 	   22.0000 	   23.0000 	   52.6588 
    1.6709 	   35.1980 	   22.0000 	   23.0000 	   52.6988 
    1.6556 	   35.2180 	   22.0000 	   23.0000 	   52.7388 
    1.7319 	   35.2390 	   22.0000 	   23.0000 	   52.7808 
    1.6709 	   35.2580 	   22.0000 	   23.0000 	   52.8188 
    1.7166 	   35.2795 	   22.0000 	   23.0000 	   52.8618 
    1.5640 	   35.2995 	   22.0000 	   23.0000 	   52.9018 
    1.6709 	   35.3195 	   22.0000 	   23.0000 	   52.9418 
    1.6709 	   35.3400 	   22.0000 	   23.0000 	   52.9828 
    1.6403 	   35.3610 	   22.0000 	   23.0000 	   53.0248 
    1.6403 	   35.3830 	   22.0000 	   23.0000 	   53.0689 
    1.6251 	   35.4035 	   22.0000 	   23.0000 	   53.1099 
    1.6403 	   35.4235 	   22.0000 	   23.0000 	   53.1499 
    1.6403 	   35.4435 	   22.0000 	   23.0000 	   53.1899 
    1.7319 	   35.4635 	   22.0000 	   23.0000 	   53.2299 
    1.7624 	   35.4830 	   22.0000 	   23.0000 	   53.2689 
    1.5793 	   35.5045 	   22.0000 	   23.0000 	   53.3119 
    1.6556 	   35.5260 	   22.0000 	   23.0000 	   53.3549 
    1.7319 	   35.5465 	   22.0000 	   23.0000 	   53.3959 
    1.7472 	   35.5670 	   22.0000 	   23.0000 	   53.4369 
    1.5335 	   35.5870 	   22.0000 	   23.0000 	   53.4769 
    1.5183 	   35.6065 	   22.0000 	   23.0000 	   53.5159 
    1.6403 	   35.6260 	   22.0000 	   23.0000 	   53.5549 
    1.6251 	   35.6465 	   22.0000 	   23.0000 	   53.5959 
    1.7166 	   35.6665 	   22.0000 	   23.0000 	   53.6359 
    1.6556 	   35.6865 	   22.0000 	   23.0000 	   53.6759 
    1.6403 	   35.7065 	   22.0000 	   23.0000 	   53.7159 
    1.6403 	   35.7260 	   22.0000 	   23.0000 	   53.7549 
    1.7166 	   35.7475 	   22.0000 	   23.0000 	   53.7979 
    1.6098 	   35.7680 	   22.0000 	   23.0000 	   53.8389 
    1.7319 	   35.7890 	   22.0000 	   23.0000 	   53.8809 
    1.6861 	   35.8085 	   22.0000 	   23.0000 	   53.9199 
    1.8692 	   35.8275 	   22.0000 	   23.0000 	   53.9579 
    1.6861 	   35.8480 	   22.0000 	   23.0000 	   53.9989 
    1.6709 	   35.8690 	   22.0000 	   23.0000 	   54.0409 
    1.6556 	   35.8890 	   22.0000 	   23.0000 	   54.0809 
    1.6403 	   35.9095 	   22.0000 	   23.0000 	   54.1219 
    1.6251 	   35.9300 	   22.0000 	   23.0000 	   54.1629 
    1.7777 	   35.9495 	   22.0000 	   23.0000 	   54.2019 
    1.7166 	   35.9710 	   22.0000 	   23.0000 	   54.2449 
    1.6556 	   35.9915 	   22.0000 	   23.0000 	   54.2859 
    1.6556 	   36.0115 	   22.0000 	   23.0000 	   54.3259 
    1.5946 	   36.0310 	   22.0000 	   23.0000 	   54.3649 
    1.6098 	   36.0520 	   22.0000 	   23.0000 	   54.4069 
    1.8997 	   36.0720 	   22.0000 	   23.0000 	   54.4469 
    1.6403 	   36.0910 	   22.0000 	   23.0000 	   54.4849 
    1.6709 	   36.1095 	   22.0000 	   23.0000 	   54.5219 
    1.6556 	   36.1270 	   22.0000 	   23.0000 	   54.5569 
    1.7014 	   36.1455 	   22.0000 	   23.0000 	   54.5939 
    1.5793 	   36.1635 	   22.0000 	   23.0000 	   54.6299 
    1.8235 	   36.1815 	   22.0000 	   23.0000 	   54.6659 
    1.7929 	   36.1995 	   22.0000 	   23.0000 	   54.7019 
    1.6709 	   36.2175 	   22.0000 	   23.0000 	   54.7379 
    1.7624 	   36.2355 	   22.0000 	   23.0000 	   54.7739 
    1.8235 	   36.2540 	   22.0000 	   23.0000 	   54.8110 
    1.7014 	   36.2725 	   22.0000 	   23.0000 	   54.8480 
    1.7472 	   36.2915 	   22.0000 	   23.0000 	   54.8860 
    1.5793 	   36.3115 	   22.0000 	   23.0000 	   54.9260 
    1.7166 	   36.3315 	   22.0000 	   23.0000 	   54.9660 
    1.6709 	   36.3515 	   22.0000 	   23.0000 	   55.0060 
    1.6251 	   36.3720 	   22.0000 	   23.0000 	   55.0470 
    1.7472 	   36.3925 	   22.0000 	   23.0000 	   55.0880 
    1.4572 	   36.4130 	   22.0000 	   23.0000 	   55.1290 
    1.6098 	   36.4340 	   22.0000 	   23.0000 	   55.1710 
    1.9150 	   36.4540 	   22.0000 	   23.0000 	   55.2110 
    1.6403 	   36.4740 	   22.0000 	   23.0000 	   55.2510 
    1.6251 	   36.4950 	   22.0000 	   23.0000 	   55.2930 
    1.7472 	   36.5155 	   22.0000 	   23.0000 	   55.3340 
    1.6403 	   36.5345 	   22.0000 	   23.0000 	   55.3720 
    1.7777 	   36.5545 	   22.0000 	   23.0000 	   55.4120 
    1.6709 	   36.5745 	   22.0000 	   23.0000 	   55.4520 
    1.7624 	   36.5950 	   22.0000 	   23.0000 	   55.4930 
    1.6861 	   36.6150 	   22.0000 	   23.0000 	   55.5330 
    1.8692 	   36.6355 	   22.0000 	   23.0000 	   55.5740 
    1.7472 	   36.6560 	   22.0000 	   23.0000 	   55.6150 
    1.8387 	   36.6775 	   22.0000 	   23.0000 	   55.6580 
    1.8235 	   36.6975 	   22.0000 	   23.0000 	   55.6980 
    1.7319 	   36.7175 	   22.0000 	   23.0000 	   55.7380 
    1.7319 	   36.7375 	   22.0000 	   23.0000 	   55.7780 
    1.7319 	   36.7570 	   22.0000 	   23.0000 	   55.8170 
    1.3657 	   36.7765 	   22.0000 	   23.0000 	   55.8560 
    1.7166 	   36.7965 	   22.0000 	   23.0000 	   55.8960 
    1.7166 	   36.8170 	   22.0000 	   23.0000 	   55.9370 
    1.7929 	   36.8375 	   22.0000 	   23.0000 	   55.9780 
    1.8082 	   36.8580 	   22.0000 	   23.0000 	   56.0190 
    1.8692 	   36.8790 	   22.0000 	   23.0000 	   56.0610 
    1.6709 	   36.8995 	   22.0000 	   23.0000 	   56.1020 
    1.8692 	   36.9200 	   22.0000 	   23.0000 	   56.1430 
    1.7166 	   36.9405 	   22.0000 	   23.0000 	   56.1840 
    1.9608 	   36.9600 	   22.0000 	   23.0000 	   56.2230 
    1.8540 	   36.9810 	   22.0000 	   23.0000 	   56.2650 
    1.7929 	   37.0005 	   22.0000 	   23.0000 	   56.3040 
    1.8692 	   37.0190 	   22.0000 	   23.0000 	   56.3410 
    1.7929 	   37.0380 	   22.0000 	   23.0000 	   56.3790 
    1.6403 	   37.0570 	   22.0000 	   23.0000 	   56.4170 
    1.8082 	   37.0765 	   22.0000 	   23.0000 	   56.4560 
    1.7472 	   37.0980 	   22.0000 	   23.0000 	   56.4990 
    1.7319 	   37.1185 	   22.0000 	   23.0000 	   56.5401 
    1.8997 	   37.1390 	   22.0000 	   23.0000 	   56.5811 
    1.7777 	   37.1590 	   22.0000 	   23.0000 	   56.6211 
    1.6709 	   37.1795 	   22.0000 	   23.0000 	   56.6621 
    1.8692 	   37.1995 	   22.0000 	   23.0000 	   56.7021 
    1.7166 	   37.2200 	   22.0000 	   23.0000 	   56.7431 
    1.8082 	   37.2400 	   22.0000 	   23.0000 	   56.7831 
    1.7166 	   37.2605 	   22.0000 	   23.0000 	   56.8241 
    1.6556 	   37.2805 	   22.0000 	   23.0000 	   56.8641 
    1.8997 	   37.3005 	   22.0000 	   23.0000 	   56.9041 
    1.7014 	   37.3215 	   22.0000 	   23.0000 	   56.9461 
    1.8082 	   37.3415 	   22.0000 	   23.0000 	   56.9861 
    1.8845 	   37.3615 	   22.0000 	   23.0000 	   57.0261 
    1.9608 	   37.3815 	   22.0000 	   23.0000 	   57.0661 
    1.8997 	   37.4005 	   22.0000 	   23.0000 	   57.1041 
    1.7319 	   37.4190 	   22.0000 	   23.0000 	   57.1411 
    1.8540 	   37.4395 	   22.0000 	   23.0000 	   57.1821 
    1.7472 	   37.4595 	   22.0000 	   23.0000 	   57.2221 
    1.9455 	   37.4795 	   22.0000 	   23.0000 	   57.2621 
    1.9303 	   37.5005 	   22.0000 	   23.0000 	   57.3041 
    1.8997 	   37.5215 	   22.0000 	   23.0000 	   57.3461 
    1.8997 	   37.5420 	   22.0000 	   23.0000 	   57.3871 
    1.8387 	   37.5620 	   22.0000 	   23.0000 	   57.4271 
    1.8235 	   37.5830 	   22.0000 	   23.0000 	   57.4691 
    1.8082 	   37.6020 	   22.0000 	   23.0000 	   57.5071 
    1.7319 	   37.6225 	   22.0000 	   23.0000 	   57.5481 
    1.7319 	   37.6440 	   22.0000 	   23.0000 	   57.5911 
    1.7624 	   37.6645 	   22.0000 	   23.0000 	   57.6321 
    1.8997 	   37.6850 	   22.0000 	   23.0000 	   57.6731 
    1.9608 	   37.7055 	   22.0000 	   23.0000 	   57.7141 
    1.8692 	   37.7260 	   22.0000 	   23.0000 	   57.7551 
    1.7777 	   37.7460 	   22.0000 	   23.0000 	   57.7951 
    1.7166 	   37.7665 	   22.0000 	   23.0000 	   57.8361 
    1.8082 	   37.7870 	   22.0000 	   23.0000 	   57.8771 
    1.8387 	   37.8075 	   22.0000 	   23.0000 	   57.9181 
    1.5640 	   37.8275 	   22.0000 	   23.0000 	   57.9581 
    1.8235 	   37.8475 	   22.0000 	   23.0000 	   57.9981 
    1.8997 	   37.8675 	   22.0000 	   23.0000 	   58.0381 
    1.8540 	   37.8890 	   22.0000 	   23.0000 	   58.0811 
    1.9913 	   37.9090 	   22.0000 	   23.0000 	   58.1211 
    1.8387 	   37.9300 	   22.0000 	   23.0000 	   58.1631 
    1.9303 	   37.9505 	   22.0000 	   23.0000 	   58.2041 
    1.9913 	   37.9705 	   22.0000 	   23.0000 	   58.2441 
    1.8845 	   37.9905 	   22.0000 	   23.0000 	   58.2841 
    1.8845 	   38.0110 	   22.0000 	   23.0000 	   58.3252 
    2.0981 	   38.0315 	   22.0000 	   23.0000 	   58.3662 
    2.0066 	   38.0535 	   22.0000 	   23.0000 	   58.4102 
    1.8387 	   38.0755 	   22.0000 	   23.0000 	   58.4532 
    1.8082 	   38.0950 	   22.0000 	   23.0000 	   58.4932 
    1.7777 	   38.1150 	   22.0000 	   23.0000 	   58.5332 
    1.9303 	   38.1360 	   22.0000 	   23.0000 	   58.5752 
    1.9760 	   38.1565 	   22.0000 	   23.0000 	   58.6162 
    1.9608 	   38.1770 	   22.0000 	   23.0000 	   58.6572 
    1.9150 	   38.1985 	   22.0000 	   23.0000 	   58.7002 
    2.0523 	   38.2175 	   22.0000 	   23.0000 	   58.7382 
    1.8845 	   38.2385 	   22.0000 	   23.0000 	   58.7802 
    1.8845 	   38.2580 	   22.0000 	   23.0000 	   58.8192 
    2.0218 	   38.2790 	   22.0000 	   23.0000 	   58.8612 
    1.7929 	   38.2995 	   22.0000 	   23.0000 	   58.9022 
    1.5793 	   38.3185 	   22.0000 	   23.0000 	   58.9402 
    2.0676 	   38.3370 	   22.0000 	   23.0000 	   58.9772 
    1.8692 	   38.3560 	   22.0000 	   23.0000 	   59.0152 
    1.8235 	   38.3740 	   22.0000 	   23.0000 	   59.0512 
    2.0066 	   38.3920 	   22.0000 	   23.0000 	   59.0872 
    1.9913 	   38.4105 	   22.0000 	   23.0000 	   59.1242 
    1.7624 	   38.4300 	   22.0000 	   23.0000 	   59.1632 
    1.9150 	   38.4480 	   22.0000 	   23.0000 	   59.1992 
    1.7624 	   38.4665 	   22.0000 	   23.0000 	   59.2362 
    1.8997 	   38.4845 	   22.0000 	   23.0000 	   59.2722 
    1.8540 	   38.5030 	   22.0000 	   23.0000 	   59.3092 
    1.9303 	   38.5215 	   22.0000 	   23.0000 	   59.3462 
    1.9303 	   38.5400 	   22.0000 	   23.0000 	   59.3832 
    1.9150 	   38.5580 	   22.0000 	   23.0000 	   59.4192 
    1.9608 	   38.5760 	   22.0000 	   23.0000 	   59.4552 
    1.8845 	   38.5945 	   22.0000 	   23.0000 	   59.4922 
    1.9760 	   38.6130 	   22.0000 	   23.0000 	   59.5292 
    1.9760 	   38.6310 	   22.0000 	   23.0000 	   59.5652 
    2.0676 	   38.6490 	   22.0000 	   23.0000 	   59.6012 
    1.8692 	   38.6670 	   22.0000 	   23.0000 	   59.6372 
    1.9303 	   38.6850 	   22.0000 	   23.0000 	   59.6732 
    1.9303 	   38.7045 	   22.0000 	   23.0000 	   59.7122 
    1.9760 	   38.7240 	   22.0000 	   23.0000 	   59.7512 
    2.0218 	   38.7420 	   22.0000 	   23.0000 	   59.7872 
    1.9455 	   38.7620 	   22.0000 	   23.0000 	   59.8272 
    2.1134 	   38.7820 	   22.0000 	   23.0000 	   59.8672 
    2.0371 	   38.8020 	   22.0000 	   23.0000 	   59.9072 
    1.9760 	   38.8235 	   22.0000 	   23.0000 	   59.9502 
    1.9303 	   38.8455 	   22.0000 	   23.0000 	   59.9942 
    2.0371 	   38.8655 	   22.0000 	   24.0000 	    0.0342 
    1.8540 	   38.8860 	   22.0000 	   24.0000 	    0.0753 
    2.0676 	   38.9050 	   22.0000 	   24.0000 	    0.1133 
    2.0829 	   38.9255 	   22.0000 	   24.0000 	    0.1543 
    2.0523 	   38.9455 	   22.0000 	   24.0000 	    0.1943 
    1.9150 	   38.9660 	   22.0000 	   24.0000 	    0.2353 
    1.9608 	   38.9850 	   22.0000 	   24.0000 	    0.2733 
    2.0371 	   39.0040 	   22.0000 	   24.0000 	    0.3113 
    2.0523 	   39.0225 	   22.0000 	   24.0000 	    0.3483 
    2.0066 	   39.0420 	   22.0000 	   24.0000 	    0.3873 
    1.9303 	   39.0605 	   22.0000 	   24.0000 	    0.4243 
    1.9913 	   39.0790 	   22.0000 	   24.0000 	    0.4613 
    1.9150 	   39.0970 	   22.0000 	   24.0000 	    0.4973 
    2.0371 	   39.1155 	   22.0000 	   24.0000 	    0.5343 
    1.8997 	   39.1330 	   22.0000 	   24.0000 	    0.5693 
    1.8845 	   39.1535 	   22.0000 	   24.0000 	    0.6103 
    1.9150 	   39.1740 	   22.0000 	   24.0000 	    0.6513 
    1.8997 	   39.1935 	   22.0000 	   24.0000 	    0.6903 
    1.9913 	   39.2140 	   22.0000 	   24.0000 	    0.7313 
    1.9303 	   39.2350 	   22.0000 	   24.0000 	    0.7733 
    1.9455 	   39.2560 	   22.0000 	   24.0000 	    0.8153 
    1.9760 	   39.2765 	   22.0000 	   24.0000 	    0.8563 
    1.8082 	   39.2975 	   22.0000 	   24.0000 	    0.8983 
    1.8692 	   39.3185 	   22.0000 	   24.0000 	    0.9403 
    1.9760 	   39.3395 	   22.0000 	   24.0000 	    0.9823 
    1.9303 	   39.3605 	   22.0000 	   24.0000 	    1.0243 
    1.9760 	   39.3800 	   22.0000 	   24.0000 	    1.0633 
    2.0218 	   39.4005 	   22.0000 	   24.0000 	    1.1043 
    2.0829 	   39.4205 	   22.0000 	   24.0000 	    1.1443 
    2.0829 	   39.4405 	   22.0000 	   24.0000 	    1.1843 
    1.9303 	   39.4610 	   22.0000 	   24.0000 	    1.2253 
    1.9760 	   39.4835 	   22.0000 	   24.0000 	    1.2703 
    1.9455 	   39.5030 	   22.0000 	   24.0000 	    1.3093 
    2.0676 	   39.5230 	   22.0000 	   24.0000 	    1.3493 
    1.9455 	   39.5440 	   22.0000 	   24.0000 	    1.3913 
    2.0371 	   39.5645 	   22.0000 	   24.0000 	    1.4323 
    1.9150 	   39.5845 	   22.0000 	   24.0000 	    1.4723 
    1.8997 	   39.6040 	   22.0000 	   24.0000 	    1.5113 
    2.1134 	   39.6245 	   22.0000 	   24.0000 	    1.5523 
    2.0066 	   39.6450 	   22.0000 	   24.0000 	    1.5933 
    1.9303 	   39.6655 	   22.0000 	   24.0000 	    1.6343 
    1.7319 	   39.6855 	   22.0000 	   24.0000 	    1.6743 
    2.0218 	   39.7055 	   22.0000 	   24.0000 	    1.7143 
    2.0371 	   39.7240 	   22.0000 	   24.0000 	    1.7513 
    2.0218 	   39.7420 	   22.0000 	   24.0000 	    1.7874 
    1.7624 	   39.7605 	   22.0000 	   24.0000 	    1.8244 
    1.9913 	   39.7790 	   22.0000 	   24.0000 	    1.8614 
    2.0829 	   39.7980 	   22.0000 	   24.0000 	    1.8994 
    2.0981 	   39.8175 	   22.0000 	   24.0000 	    1.9384 
    2.2354 	   39.8375 	   22.0000 	   24.0000 	    1.9784 
    1.9760 	   39.8575 	   22.0000 	   24.0000 	    2.0184 
    2.0829 	   39.8795 	   22.0000 	   24.0000 	    2.0624 
    2.0829 	   39.9005 	   22.0000 	   24.0000 	    2.1044 
    1.6556 	   39.9210 	   22.0000 	   24.0000 	    2.1454 
    2.0981 	   39.9420 	   22.0000 	   24.0000 	    2.1874 
    2.1439 	   39.9625 	   22.0000 	   24.0000 	    2.2284 
    1.8540 	   39.9835 	   22.0000 	   24.0000 	    2.2704 
    2.1897 	   40.0020 	   22.0000 	   24.0000 	    2.3074 
    2.0371 	   40.0210 	   22.0000 	   24.0000 	    2.3454 
    2.2202 	   40.0415 	   22.0000 	   24.0000 	    2.3864 
    2.0218 	   40.0595 	   22.0000 	   24.0000 	    2.4224 
    1.9150 	   40.0780 	   22.0000 	   24.0000 	    2.4594 
    2.0523 	   40.0965 	   22.0000 	   24.0000 	    2.4964 
    2.2049 	   40.1145 	   22.0000 	   24.0000 	    2.5324 
    1.9913 	   40.1335 	   22.0000 	   24.0000 	    2.5704 
    2.0371 	   40.1515 	   22.0000 	   24.0000 	    2.6064 
    1.7777 	   40.1695 	   22.0000 	   24.0000 	    2.6424 
    2.0676 	   40.1880 	   22.0000 	   24.0000 	    2.6794 
    2.1439 	   40.2065 	   22.0000 	   24.0000 	    2.7164 
    2.0371 	   40.2270 	   22.0000 	   24.0000 	    2.7574 
    2.0981 	   40.2490 	   22.0000 	   24.0000 	    2.8014 
    1.9608 	   40.2680 	   22.0000 	   24.0000 	    2.8394 
    2.0981 	   40.2865 	   22.0000 	   24.0000 	    2.8764 
    2.2049 	   40.3050 	   22.0000 	   24.0000 	    2.9134 
    1.8082 	   40.3230 	   22.0000 	   24.0000 	    2.9494 
    2.0218 	   40.3415 	   22.0000 	   24.0000 	    2.9864 
    2.0676 	   40.3600 	   22.0000 	   24.0000 	    3.0234 
    1.9760 	   40.3785 	   22.0000 	   24.0000 	    3.0604 
    2.1439 	   40.3975 	   22.0000 	   24.0000 	    3.0984 
    2.1134 	   40.4165 	   22.0000 	   24.0000 	    3.1364 
    2.0218 	   40.4350 	   22.0000 	   24.0000 	    3.1734 
    2.0981 	   40.4545 	   22.0000 	   24.0000 	    3.2124 
    2.0829 	   40.4725 	   22.0000 	   24.0000 	    3.2484 
    2.0066 	   40.4910 	   22.0000 	   24.0000 	    3.2854 
    2.2202 	   40.5095 	   22.0000 	   24.0000 	    3.3224 
    2.1134 	   40.5275 	   22.0000 	   24.0000 	    3.3584 
    2.1744 	   40.5475 	   22.0000 	   24.0000 	    3.3984 
    2.2049 	   40.5690 	   22.0000 	   24.0000 	    3.4414 
    2.0218 	   40.5910 	   22.0000 	   24.0000 	    3.4854 
    1.8387 	   40.6095 	   22.0000 	   24.0000 	    3.5224 
    2.1592 	   40.6280 	   22.0000 	   24.0000 	    3.5595 
