Thayer School of Engineering        Instron 4442 Mechanical Testing System
7/5/2018 6:51:45 AM

  Force (N)	Extension (mm)	Not Used	Not Used	Not Used	     Hour	    Minute	    Second
    1.0452 	    1.0240 	    6.0000 	   52.0000 	    9.1971 
    0.8164 	    1.0550 	    6.0000 	   52.0000 	    9.2281 
    0.8927 	    1.1200 	    6.0000 	   52.0000 	    9.2931 
    0.9842 	    1.1780 	    6.0000 	   52.0000 	    9.3511 
    0.9842 	    1.2280 	    6.0000 	   52.0000 	    9.4011 
    0.9537 	    1.2790 	    6.0000 	   52.0000 	    9.4521 
    1.0910 	    1.3080 	    6.0000 	   52.0000 	    9.4811 
    0.9079 	    1.3370 	    6.0000 	   52.0000 	    9.5101 
    1.0452 	    1.3920 	    6.0000 	   52.0000 	    9.5652 
    0.8316 	    1.4460 	    6.0000 	   52.0000 	    9.6192 
    1.0605 	    1.5000 	    6.0000 	   52.0000 	    9.6732 
    0.8469 	    1.5530 	    6.0000 	   52.0000 	    9.7262 
    0.7858 	    1.6050 	    6.0000 	   52.0000 	    9.7782 
    0.7248 	    1.6570 	    6.0000 	   52.0000 	    9.8302 
    0.9384 	    1.7110 	    6.0000 	   52.0000 	    9.8842 
    0.8316 	    1.7590 	    6.0000 	   52.0000 	    9.9322 
    0.8774 	    1.8110 	    6.0000 	   52.0000 	    9.9842 
    0.9995 	    1.8630 	    6.0000 	   52.0000 	   10.0362 
    0.8927 	    1.8920 	    6.0000 	   52.0000 	   10.0652 
    1.0452 	    1.9470 	    6.0000 	   52.0000 	   10.1202 
    0.8621 	    1.9960 	    6.0000 	   52.0000 	   10.1692 
    0.8164 	    2.0450 	    6.0000 	   52.0000 	   10.2182 
    0.9537 	    2.0960 	    6.0000 	   52.0000 	   10.2692 
    0.8469 	    2.1480 	    6.0000 	   52.0000 	   10.3212 
    0.8774 	    2.1990 	    6.0000 	   52.0000 	   10.3722 
    0.9232 	    2.2480 	    6.0000 	   52.0000 	   10.4212 
    0.8469 	    2.2780 	    6.0000 	   52.0000 	   10.4512 
    0.8621 	    2.3350 	    6.0000 	   52.0000 	   10.5082 
    0.8927 	    2.3850 	    6.0000 	   52.0000 	   10.5582 
    0.7553 	    2.4140 	    6.0000 	   52.0000 	   10.5872 
    0.9232 	    2.4690 	    6.0000 	   52.0000 	   10.6422 
    0.8621 	    2.5200 	    6.0000 	   52.0000 	   10.6932 
    0.9842 	    2.5710 	    6.0000 	   52.0000 	   10.7442 
    0.9232 	    2.6260 	    6.0000 	   52.0000 	   10.7992 
    0.9537 	    2.6790 	    6.0000 	   52.0000 	   10.8522 
    0.9842 	    2.7090 	    6.0000 	   52.0000 	   10.8822 
    0.9537 	    2.7380 	    6.0000 	   52.0000 	   10.9112 
    0.7706 	    2.7660 	    6.0000 	   52.0000 	   10.9392 
    0.8011 	    2.7950 	    6.0000 	   52.0000 	   10.9682 
    0.8316 	    2.8490 	    6.0000 	   52.0000 	   11.0222 
    0.9537 	    2.9020 	    6.0000 	   52.0000 	   11.0752 
    0.9384 	    2.9520 	    6.0000 	   52.0000 	   11.1252 
    0.9079 	    3.0010 	    6.0000 	   52.0000 	   11.1742 
    0.8927 	    3.0300 	    6.0000 	   52.0000 	   11.2032 
    1.0758 	    3.0820 	    6.0000 	   52.0000 	   11.2552 
    0.7553 	    3.1110 	    6.0000 	   52.0000 	   11.2843 
    0.8927 	    3.1680 	    6.0000 	   52.0000 	   11.3413 
    0.8774 	    3.2190 	    6.0000 	   52.0000 	   11.3923 
    0.9689 	    3.2480 	    6.0000 	   52.0000 	   11.4213 
    1.0147 	    3.2780 	    6.0000 	   52.0000 	   11.4513 
    0.9232 	    3.3070 	    6.0000 	   52.0000 	   11.4803 
    0.9995 	    3.3360 	    6.0000 	   52.0000 	   11.5093 
    0.8164 	    3.3640 	    6.0000 	   52.0000 	   11.5373 
    0.9232 	    3.3950 	    6.0000 	   52.0000 	   11.5683 
    0.9995 	    3.4260 	    6.0000 	   52.0000 	   11.5993 
    0.8774 	    3.4570 	    6.0000 	   52.0000 	   11.6303 
    0.8774 	    3.4900 	    6.0000 	   52.0000 	   11.6633 
    0.9232 	    3.5240 	    6.0000 	   52.0000 	   11.6973 
    0.9079 	    3.5540 	    6.0000 	   52.0000 	   11.7273 
    0.9995 	    3.5830 	    6.0000 	   52.0000 	   11.7563 
    1.0605 	    3.6110 	    6.0000 	   52.0000 	   11.7843 
    0.8927 	    3.6410 	    6.0000 	   52.0000 	   11.8143 
    1.1978 	    3.6700 	    6.0000 	   52.0000 	   11.8433 
    1.2131 	    3.6990 	    6.0000 	   52.0000 	   11.8723 
    1.0300 	    3.7550 	    6.0000 	   52.0000 	   11.9283 
    0.9537 	    3.8040 	    6.0000 	   52.0000 	   11.9773 
    0.9842 	    3.8320 	    6.0000 	   52.0000 	   12.0053 
    0.9079 	    3.8600 	    6.0000 	   52.0000 	   12.0333 
    0.9079 	    3.8890 	    6.0000 	   52.0000 	   12.0623 
    1.0605 	    3.9180 	    6.0000 	   52.0000 	   12.0913 
    0.9689 	    3.9470 	    6.0000 	   52.0000 	   12.1203 
    0.9689 	    3.9750 	    6.0000 	   52.0000 	   12.1483 
    0.9232 	    4.0030 	    6.0000 	   52.0000 	   12.1763 
    1.1521 	    4.0350 	    6.0000 	   52.0000 	   12.2083 
    0.8774 	    4.0670 	    6.0000 	   52.0000 	   12.2403 
    1.0452 	    4.0990 	    6.0000 	   52.0000 	   12.2723 
    1.0300 	    4.1320 	    6.0000 	   52.0000 	   12.3053 
    0.9079 	    4.1640 	    6.0000 	   52.0000 	   12.3363 
    0.9995 	    4.1980 	    6.0000 	   52.0000 	   12.3713 
    1.1673 	    4.2280 	    6.0000 	   52.0000 	   12.4013 
    0.9537 	    4.2580 	    6.0000 	   52.0000 	   12.4313 
    0.9689 	    4.2900 	    6.0000 	   52.0000 	   12.4633 
    1.0452 	    4.3220 	    6.0000 	   52.0000 	   12.4953 
    0.8774 	    4.3470 	    6.0000 	   52.0000 	   12.5203 
    0.9232 	    4.3750 	    6.0000 	   52.0000 	   12.5483 
    0.9079 	    4.4000 	    6.0000 	   52.0000 	   12.5733 
    0.8316 	    4.4290 	    6.0000 	   52.0000 	   12.6023 
    0.9842 	    4.4570 	    6.0000 	   52.0000 	   12.6293 
    1.0300 	    4.4830 	    6.0000 	   52.0000 	   12.6563 
    0.8316 	    4.5110 	    6.0000 	   52.0000 	   12.6843 
    0.8469 	    4.5360 	    6.0000 	   52.0000 	   12.7093 
    0.9995 	    4.5660 	    6.0000 	   52.0000 	   12.7393 
    0.8927 	    4.5930 	    6.0000 	   52.0000 	   12.7663 
    0.9842 	    4.6230 	    6.0000 	   52.0000 	   12.7963 
    1.1215 	    4.6510 	    6.0000 	   52.0000 	   12.8243 
    1.0147 	    4.6830 	    6.0000 	   52.0000 	   12.8563 
    0.9079 	    4.7140 	    6.0000 	   52.0000 	   12.8873 
    1.0300 	    4.7390 	    6.0000 	   52.0000 	   12.9123 
    1.0758 	    4.7670 	    6.0000 	   52.0000 	   12.9403 
    1.0452 	    4.7920 	    6.0000 	   52.0000 	   12.9653 
    1.0605 	    4.8190 	    6.0000 	   52.0000 	   12.9923 
    1.0910 	    4.8450 	    6.0000 	   52.0000 	   13.0183 
    0.9537 	    4.8770 	    6.0000 	   52.0000 	   13.0504 
    0.9842 	    4.9050 	    6.0000 	   52.0000 	   13.0784 
    1.0452 	    4.9390 	    6.0000 	   52.0000 	   13.1124 
    1.0452 	    4.9720 	    6.0000 	   52.0000 	   13.1454 
    0.9232 	    5.0020 	    6.0000 	   52.0000 	   13.1754 
    1.0452 	    5.0350 	    6.0000 	   52.0000 	   13.2084 
    0.9537 	    5.0690 	    6.0000 	   52.0000 	   13.2424 
    1.0300 	    5.1010 	    6.0000 	   52.0000 	   13.2744 
    1.0452 	    5.1330 	    6.0000 	   52.0000 	   13.3064 
    1.1215 	    5.1650 	    6.0000 	   52.0000 	   13.3384 
    0.9842 	    5.1940 	    6.0000 	   52.0000 	   13.3674 
    1.0758 	    5.2280 	    6.0000 	   52.0000 	   13.4014 
    1.0147 	    5.2590 	    6.0000 	   52.0000 	   13.4324 
    1.0758 	    5.2910 	    6.0000 	   52.0000 	   13.4644 
    1.0910 	    5.3210 	    6.0000 	   52.0000 	   13.4944 
    0.9995 	    5.3540 	    6.0000 	   52.0000 	   13.5274 
    1.1978 	    5.3860 	    6.0000 	   52.0000 	   13.5594 
    1.0605 	    5.4180 	    6.0000 	   52.0000 	   13.5914 
    1.0300 	    5.4470 	    6.0000 	   52.0000 	   13.6204 
    1.0452 	    5.4810 	    6.0000 	   52.0000 	   13.6544 
    0.9079 	    5.5100 	    6.0000 	   52.0000 	   13.6834 
    1.0300 	    5.5400 	    6.0000 	   52.0000 	   13.7134 
    1.1063 	    5.5700 	    6.0000 	   52.0000 	   13.7434 
    1.0605 	    5.5980 	    6.0000 	   52.0000 	   13.7714 
    1.0452 	    5.6240 	    6.0000 	   52.0000 	   13.7974 
    0.9842 	    5.6500 	    6.0000 	   52.0000 	   13.8234 
    1.0300 	    5.6790 	    6.0000 	   52.0000 	   13.8524 
    1.0758 	    5.7050 	    6.0000 	   52.0000 	   13.8784 
    1.0300 	    5.7330 	    6.0000 	   52.0000 	   13.9064 
    1.0300 	    5.7620 	    6.0000 	   52.0000 	   13.9354 
    1.0605 	    5.7860 	    6.0000 	   52.0000 	   13.9594 
    0.9689 	    5.8120 	    6.0000 	   52.0000 	   13.9854 
    1.2131 	    5.8370 	    6.0000 	   52.0000 	   14.0104 
    1.1368 	    5.8660 	    6.0000 	   52.0000 	   14.0394 
    1.1368 	    5.8960 	    6.0000 	   52.0000 	   14.0694 
    1.0758 	    5.9260 	    6.0000 	   52.0000 	   14.0994 
    1.0910 	    5.9550 	    6.0000 	   52.0000 	   14.1284 
    1.0147 	    5.9860 	    6.0000 	   52.0000 	   14.1594 
    1.0147 	    6.0160 	    6.0000 	   52.0000 	   14.1894 
    1.0758 	    6.0440 	    6.0000 	   52.0000 	   14.2174 
    0.9079 	    6.0770 	    6.0000 	   52.0000 	   14.2504 
    1.0452 	    6.1080 	    6.0000 	   52.0000 	   14.2814 
    1.1215 	    6.1390 	    6.0000 	   52.0000 	   14.3124 
    1.0147 	    6.1720 	    6.0000 	   52.0000 	   14.3454 
    1.1063 	    6.2030 	    6.0000 	   52.0000 	   14.3764 
    1.1368 	    6.2330 	    6.0000 	   52.0000 	   14.4064 
    1.0758 	    6.2660 	    6.0000 	   52.0000 	   14.4394 
    1.1063 	    6.2940 	    6.0000 	   52.0000 	   14.4674 
    1.1063 	    6.3240 	    6.0000 	   52.0000 	   14.4974 
    0.9995 	    6.3540 	    6.0000 	   52.0000 	   14.5274 
    1.1978 	    6.3870 	    6.0000 	   52.0000 	   14.5604 
    0.9842 	    6.4160 	    6.0000 	   52.0000 	   14.5894 
    1.2436 	    6.4440 	    6.0000 	   52.0000 	   14.6174 
    0.9995 	    6.4770 	    6.0000 	   52.0000 	   14.6504 
    1.0452 	    6.5080 	    6.0000 	   52.0000 	   14.6814 
    1.1368 	    6.5380 	    6.0000 	   52.0000 	   14.7114 
    1.1368 	    6.5710 	    6.0000 	   52.0000 	   14.7444 
    1.0605 	    6.6000 	    6.0000 	   52.0000 	   14.7734 
    1.1826 	    6.6270 	    6.0000 	   52.0000 	   14.8005 
    1.1673 	    6.6570 	    6.0000 	   52.0000 	   14.8305 
    1.1368 	    6.6830 	    6.0000 	   52.0000 	   14.8565 
    1.2284 	    6.7090 	    6.0000 	   52.0000 	   14.8825 
    1.2436 	    6.7360 	    6.0000 	   52.0000 	   14.9095 
    1.1826 	    6.7660 	    6.0000 	   52.0000 	   14.9395 
    0.9232 	    6.7920 	    6.0000 	   52.0000 	   14.9655 
    1.1215 	    6.8200 	    6.0000 	   52.0000 	   14.9935 
    0.9842 	    6.8510 	    6.0000 	   52.0000 	   15.0245 
    1.0300 	    6.8850 	    6.0000 	   52.0000 	   15.0585 
    1.1063 	    6.9150 	    6.0000 	   52.0000 	   15.0885 
    1.0300 	    6.9450 	    6.0000 	   52.0000 	   15.1185 
    1.1215 	    6.9790 	    6.0000 	   52.0000 	   15.1525 
    1.0300 	    7.0070 	    6.0000 	   52.0000 	   15.1805 
    1.0758 	    7.0400 	    6.0000 	   52.0000 	   15.2135 
    1.0758 	    7.0730 	    6.0000 	   52.0000 	   15.2465 
    1.0452 	    7.1030 	    6.0000 	   52.0000 	   15.2765 
    1.2436 	    7.1320 	    6.0000 	   52.0000 	   15.3055 
    1.0300 	    7.1650 	    6.0000 	   52.0000 	   15.3385 
    0.9842 	    7.1950 	    6.0000 	   52.0000 	   15.3685 
    1.1368 	    7.2240 	    6.0000 	   52.0000 	   15.3975 
    0.9232 	    7.2560 	    6.0000 	   52.0000 	   15.4295 
    1.0452 	    7.2910 	    6.0000 	   52.0000 	   15.4645 
    1.0147 	    7.3220 	    6.0000 	   52.0000 	   15.4955 
    1.0452 	    7.3530 	    6.0000 	   52.0000 	   15.5265 
    1.0605 	    7.3860 	    6.0000 	   52.0000 	   15.5595 
    1.1521 	    7.4210 	    6.0000 	   52.0000 	   15.5945 
    1.3199 	    7.4480 	    6.0000 	   52.0000 	   15.6215 
    0.9232 	    7.4780 	    6.0000 	   52.0000 	   15.6515 
    1.2589 	    7.5060 	    6.0000 	   52.0000 	   15.6795 
    1.2436 	    7.5330 	    6.0000 	   52.0000 	   15.7065 
    1.1673 	    7.5620 	    6.0000 	   52.0000 	   15.7355 
    1.1215 	    7.5940 	    6.0000 	   52.0000 	   15.7675 
    1.3504 	    7.6190 	    6.0000 	   52.0000 	   15.7925 
    1.1826 	    7.6450 	    6.0000 	   52.0000 	   15.8185 
    1.1215 	    7.6760 	    6.0000 	   52.0000 	   15.8495 
    0.9995 	    7.7020 	    6.0000 	   52.0000 	   15.8755 
    1.1368 	    7.7280 	    6.0000 	   52.0000 	   15.9015 
    1.1978 	    7.7560 	    6.0000 	   52.0000 	   15.9295 
    1.1826 	    7.7820 	    6.0000 	   52.0000 	   15.9555 
    1.0910 	    7.8080 	    6.0000 	   52.0000 	   15.9815 
    1.1368 	    7.8340 	    6.0000 	   52.0000 	   16.0075 
    1.0300 	    7.8630 	    6.0000 	   52.0000 	   16.0365 
    1.1215 	    7.8910 	    6.0000 	   52.0000 	   16.0645 
    1.1215 	    7.9190 	    6.0000 	   52.0000 	   16.0925 
    1.1521 	    7.9450 	    6.0000 	   52.0000 	   16.1185 
    1.1673 	    7.9720 	    6.0000 	   52.0000 	   16.1455 
    1.2131 	    7.9990 	    6.0000 	   52.0000 	   16.1725 
    1.1063 	    8.0270 	    6.0000 	   52.0000 	   16.2005 
    1.1673 	    8.0580 	    6.0000 	   52.0000 	   16.2315 
    1.0300 	    8.0900 	    6.0000 	   52.0000 	   16.2635 
    1.1826 	    8.1210 	    6.0000 	   52.0000 	   16.2945 
    1.1368 	    8.1530 	    6.0000 	   52.0000 	   16.3265 
    1.1978 	    8.1840 	    6.0000 	   52.0000 	   16.3575 
    1.1978 	    8.2120 	    6.0000 	   52.0000 	   16.3855 
    1.1826 	    8.2420 	    6.0000 	   52.0000 	   16.4155 
    1.1215 	    8.2750 	    6.0000 	   52.0000 	   16.4485 
    1.2284 	    8.3060 	    6.0000 	   52.0000 	   16.4795 
    1.1521 	    8.3380 	    6.0000 	   52.0000 	   16.5115 
    1.1368 	    8.3700 	    6.0000 	   52.0000 	   16.5436 
    1.1215 	    8.3990 	    6.0000 	   52.0000 	   16.5726 
    1.0910 	    8.4290 	    6.0000 	   52.0000 	   16.6026 
    1.1063 	    8.4590 	    6.0000 	   52.0000 	   16.6326 
    0.9842 	    8.4910 	    6.0000 	   52.0000 	   16.6646 
    1.0758 	    8.5230 	    6.0000 	   52.0000 	   16.6966 
    1.2284 	    8.5570 	    6.0000 	   52.0000 	   16.7296 
    1.2741 	    8.5860 	    6.0000 	   52.0000 	   16.7586 
    1.1063 	    8.6150 	    6.0000 	   52.0000 	   16.7876 
    1.2894 	    8.6420 	    6.0000 	   52.0000 	   16.8146 
    1.1826 	    8.6710 	    6.0000 	   52.0000 	   16.8436 
    1.1063 	    8.6990 	    6.0000 	   52.0000 	   16.8716 
    1.2284 	    8.7260 	    6.0000 	   52.0000 	   16.8986 
    1.1673 	    8.7530 	    6.0000 	   52.0000 	   16.9256 
    1.2284 	    8.7790 	    6.0000 	   52.0000 	   16.9516 
    1.2589 	    8.8050 	    6.0000 	   52.0000 	   16.9776 
    1.1826 	    8.8300 	    6.0000 	   52.0000 	   17.0026 
    1.0758 	    8.8580 	    6.0000 	   52.0000 	   17.0306 
    1.1521 	    8.8840 	    6.0000 	   52.0000 	   17.0566 
    0.9842 	    8.9110 	    6.0000 	   52.0000 	   17.0836 
    1.2284 	    8.9370 	    6.0000 	   52.0000 	   17.1096 
    1.1521 	    8.9640 	    6.0000 	   52.0000 	   17.1366 
    1.2741 	    8.9900 	    6.0000 	   52.0000 	   17.1626 
    1.2741 	    9.0180 	    6.0000 	   52.0000 	   17.1906 
    1.1673 	    9.0460 	    6.0000 	   52.0000 	   17.2186 
    1.1215 	    9.0800 	    6.0000 	   52.0000 	   17.2526 
    1.2589 	    9.1090 	    6.0000 	   52.0000 	   17.2816 
    0.9079 	    9.1410 	    6.0000 	   52.0000 	   17.3136 
    1.2436 	    9.1740 	    6.0000 	   52.0000 	   17.3466 
    1.1521 	    9.2060 	    6.0000 	   52.0000 	   17.3786 
    1.2436 	    9.2380 	    6.0000 	   52.0000 	   17.4106 
    1.1978 	    9.2720 	    6.0000 	   52.0000 	   17.4446 
    1.2741 	    9.3040 	    6.0000 	   52.0000 	   17.4766 
    1.1215 	    9.3330 	    6.0000 	   52.0000 	   17.5056 
    1.3046 	    9.3630 	    6.0000 	   52.0000 	   17.5356 
    1.2436 	    9.3930 	    6.0000 	   52.0000 	   17.5656 
    1.2741 	    9.4210 	    6.0000 	   52.0000 	   17.5936 
    1.2284 	    9.4540 	    6.0000 	   52.0000 	   17.6266 
    1.2284 	    9.4870 	    6.0000 	   52.0000 	   17.6596 
    1.2131 	    9.5150 	    6.0000 	   52.0000 	   17.6876 
    1.2894 	    9.5460 	    6.0000 	   52.0000 	   17.7186 
    1.1978 	    9.5770 	    6.0000 	   52.0000 	   17.7496 
    1.2894 	    9.6060 	    6.0000 	   52.0000 	   17.7786 
    1.3046 	    9.6350 	    6.0000 	   52.0000 	   17.8076 
    1.2284 	    9.6650 	    6.0000 	   52.0000 	   17.8376 
    1.2131 	    9.6930 	    6.0000 	   52.0000 	   17.8656 
    1.1215 	    9.7200 	    6.0000 	   52.0000 	   17.8926 
    1.2131 	    9.7470 	    6.0000 	   52.0000 	   17.9196 
    1.2284 	    9.7740 	    6.0000 	   52.0000 	   17.9466 
    1.2894 	    9.8010 	    6.0000 	   52.0000 	   17.9736 
    1.3504 	    9.8280 	    6.0000 	   52.0000 	   18.0006 
    1.3504 	    9.8570 	    6.0000 	   52.0000 	   18.0296 
    0.9384 	    9.8850 	    6.0000 	   52.0000 	   18.0576 
    1.1826 	    9.9120 	    6.0000 	   52.0000 	   18.0846 
    1.0758 	    9.9390 	    6.0000 	   52.0000 	   18.1116 
    1.2284 	    9.9670 	    6.0000 	   52.0000 	   18.1396 
    1.2589 	    9.9930 	    6.0000 	   52.0000 	   18.1656 
    1.2436 	   10.0210 	    6.0000 	   52.0000 	   18.1936 
    1.1826 	   10.0480 	    6.0000 	   52.0000 	   18.2206 
    1.2436 	   10.0770 	    6.0000 	   52.0000 	   18.2496 
    1.3962 	   10.1040 	    6.0000 	   52.0000 	   18.2766 
    1.3046 	   10.1300 	    6.0000 	   52.0000 	   18.3027 
    1.3504 	   10.1580 	    6.0000 	   52.0000 	   18.3307 
    1.2284 	   10.1890 	    6.0000 	   52.0000 	   18.3617 
    1.4878 	   10.2200 	    6.0000 	   52.0000 	   18.3927 
    1.2894 	   10.2500 	    6.0000 	   52.0000 	   18.4227 
    1.2894 	   10.3130 	    6.0000 	   52.0000 	   18.4857 
    1.1673 	   10.3450 	    6.0000 	   52.0000 	   18.5177 
    1.2741 	   10.3740 	    6.0000 	   52.0000 	   18.5467 
    1.1978 	   10.4070 	    6.0000 	   52.0000 	   18.5797 
    1.2741 	   10.4370 	    6.0000 	   52.0000 	   18.6097 
    1.3657 	   10.4710 	    6.0000 	   52.0000 	   18.6437 
    1.1521 	   10.4970 	    6.0000 	   52.0000 	   18.6697 
    1.2284 	   10.5250 	    6.0000 	   52.0000 	   18.6967 
    1.3046 	   10.5530 	    6.0000 	   52.0000 	   18.7257 
    1.3809 	   10.5800 	    6.0000 	   52.0000 	   18.7527 
    1.1826 	   10.6070 	    6.0000 	   52.0000 	   18.7797 
    1.3504 	   10.6350 	    6.0000 	   52.0000 	   18.8077 
    1.3504 	   10.6670 	    6.0000 	   52.0000 	   18.8397 
    1.3199 	   10.6950 	    6.0000 	   52.0000 	   18.8677 
    0.9842 	   10.7210 	    6.0000 	   52.0000 	   18.8937 
    1.1978 	   10.7480 	    6.0000 	   52.0000 	   18.9207 
    1.3809 	   10.7760 	    6.0000 	   52.0000 	   18.9487 
    1.1978 	   10.8030 	    6.0000 	   52.0000 	   18.9757 
    1.1978 	   10.8300 	    6.0000 	   52.0000 	   19.0027 
    1.3352 	   10.8600 	    6.0000 	   52.0000 	   19.0327 
    1.2741 	   10.8890 	    6.0000 	   52.0000 	   19.0617 
    1.3809 	   10.9210 	    6.0000 	   52.0000 	   19.0937 
    1.4420 	   10.9510 	    6.0000 	   52.0000 	   19.1237 
    1.3504 	   10.9820 	    6.0000 	   52.0000 	   19.1547 
    1.2284 	   11.0130 	    6.0000 	   52.0000 	   19.1857 
    1.1978 	   11.0420 	    6.0000 	   52.0000 	   19.2147 
    1.3504 	   11.0750 	    6.0000 	   52.0000 	   19.2477 
    1.1215 	   11.1080 	    6.0000 	   52.0000 	   19.2807 
    0.9995 	   11.1400 	    6.0000 	   52.0000 	   19.3127 
    0.9537 	   11.1730 	    6.0000 	   52.0000 	   19.3457 
    1.3962 	   11.2050 	    6.0000 	   52.0000 	   19.3777 
    1.3199 	   11.2390 	    6.0000 	   52.0000 	   19.4117 
    1.3809 	   11.2740 	    6.0000 	   52.0000 	   19.4467 
    1.2436 	   11.3050 	    6.0000 	   52.0000 	   19.4777 
    1.3504 	   11.3320 	    6.0000 	   52.0000 	   19.5047 
    1.2131 	   11.3590 	    6.0000 	   52.0000 	   19.5317 
    1.3199 	   11.3870 	    6.0000 	   52.0000 	   19.5597 
    1.4115 	   11.4140 	    6.0000 	   52.0000 	   19.5867 
    1.4115 	   11.4410 	    6.0000 	   52.0000 	   19.6137 
    1.2131 	   11.4720 	    6.0000 	   52.0000 	   19.6447 
    1.4420 	   11.5000 	    6.0000 	   52.0000 	   19.6727 
    1.2894 	   11.5270 	    6.0000 	   52.0000 	   19.6997 
    1.3962 	   11.5570 	    6.0000 	   52.0000 	   19.7297 
    1.3962 	   11.5860 	    6.0000 	   52.0000 	   19.7587 
    1.3962 	   11.6140 	    6.0000 	   52.0000 	   19.7867 
    1.3962 	   11.6410 	    6.0000 	   52.0000 	   19.8137 
    1.1826 	   11.6720 	    6.0000 	   52.0000 	   19.8447 
    1.3962 	   11.7010 	    6.0000 	   52.0000 	   19.8737 
    1.2589 	   11.7330 	    6.0000 	   52.0000 	   19.9057 
    1.1826 	   11.7610 	    6.0000 	   52.0000 	   19.9337 
    1.3352 	   11.7880 	    6.0000 	   52.0000 	   19.9607 
    1.3809 	   11.8190 	    6.0000 	   52.0000 	   19.9917 
    1.5640 	   11.8460 	    6.0000 	   52.0000 	   20.0187 
    1.5183 	   11.8720 	    6.0000 	   52.0000 	   20.0448 
    1.3199 	   11.9000 	    6.0000 	   52.0000 	   20.0728 
    1.3657 	   11.9300 	    6.0000 	   52.0000 	   20.1028 
    1.3046 	   11.9600 	    6.0000 	   52.0000 	   20.1328 
    1.3199 	   11.9910 	    6.0000 	   52.0000 	   20.1638 
    1.3809 	   12.0230 	    6.0000 	   52.0000 	   20.1958 
    1.2894 	   12.0540 	    6.0000 	   52.0000 	   20.2268 
    1.4267 	   12.0900 	    6.0000 	   52.0000 	   20.2628 
    1.2741 	   12.1200 	    6.0000 	   52.0000 	   20.2928 
    1.5183 	   12.1520 	    6.0000 	   52.0000 	   20.3248 
    1.3962 	   12.1840 	    6.0000 	   52.0000 	   20.3568 
    1.3199 	   12.2140 	    6.0000 	   52.0000 	   20.3868 
    1.3504 	   12.2440 	    6.0000 	   52.0000 	   20.4168 
    1.3504 	   12.2770 	    6.0000 	   52.0000 	   20.4498 
    1.3046 	   12.3040 	    6.0000 	   52.0000 	   20.4768 
    1.4115 	   12.3310 	    6.0000 	   52.0000 	   20.5038 
    1.3199 	   12.3580 	    6.0000 	   52.0000 	   20.5308 
    1.3809 	   12.3860 	    6.0000 	   52.0000 	   20.5588 
    1.4725 	   12.4140 	    6.0000 	   52.0000 	   20.5868 
    1.3809 	   12.4430 	    6.0000 	   52.0000 	   20.6158 
    1.3962 	   12.4750 	    6.0000 	   52.0000 	   20.6478 
    1.4725 	   12.5030 	    6.0000 	   52.0000 	   20.6758 
    1.3657 	   12.5330 	    6.0000 	   52.0000 	   20.7058 
    1.3657 	   12.5630 	    6.0000 	   52.0000 	   20.7358 
    1.0605 	   12.5940 	    6.0000 	   52.0000 	   20.7668 
    1.3352 	   12.6230 	    6.0000 	   52.0000 	   20.7958 
    1.4878 	   12.6520 	    6.0000 	   52.0000 	   20.8248 
    1.4267 	   12.6850 	    6.0000 	   52.0000 	   20.8578 
    1.3352 	   12.7140 	    6.0000 	   52.0000 	   20.8868 
    1.0758 	   12.7410 	    6.0000 	   52.0000 	   20.9138 
    1.4115 	   12.7700 	    6.0000 	   52.0000 	   20.9428 
    1.4267 	   12.7980 	    6.0000 	   52.0000 	   20.9708 
    1.3504 	   12.8260 	    6.0000 	   52.0000 	   20.9988 
    1.4878 	   12.8560 	    6.0000 	   52.0000 	   21.0288 
    1.3809 	   12.8870 	    6.0000 	   52.0000 	   21.0598 
    1.4725 	   12.9140 	    6.0000 	   52.0000 	   21.0868 
    1.4420 	   12.9400 	    6.0000 	   52.0000 	   21.1128 
    1.3046 	   12.9700 	    6.0000 	   52.0000 	   21.1428 
    1.4420 	   13.0010 	    6.0000 	   52.0000 	   21.1738 
    1.5335 	   13.0310 	    6.0000 	   52.0000 	   21.2038 
    1.4267 	   13.0660 	    6.0000 	   52.0000 	   21.2388 
    1.5030 	   13.0960 	    6.0000 	   52.0000 	   21.2688 
    1.3657 	   13.1260 	    6.0000 	   52.0000 	   21.2988 
    1.4115 	   13.1570 	    6.0000 	   52.0000 	   21.3298 
    1.4420 	   13.1910 	    6.0000 	   52.0000 	   21.3638 
    1.5183 	   13.2230 	    6.0000 	   52.0000 	   21.3958 
    1.4115 	   13.2570 	    6.0000 	   52.0000 	   21.4298 
    1.3962 	   13.2920 	    6.0000 	   52.0000 	   21.4648 
    1.3199 	   13.3250 	    6.0000 	   52.0000 	   21.4978 
    1.3962 	   13.3580 	    6.0000 	   52.0000 	   21.5308 
    1.4115 	   13.3900 	    6.0000 	   52.0000 	   21.5628 
    1.4725 	   13.4240 	    6.0000 	   52.0000 	   21.5968 
    1.4115 	   13.4580 	    6.0000 	   52.0000 	   21.6308 
    1.4115 	   13.4950 	    6.0000 	   52.0000 	   21.6678 
    1.5030 	   13.5260 	    6.0000 	   52.0000 	   21.6988 
    1.3199 	   13.5590 	    6.0000 	   52.0000 	   21.7318 
    1.3962 	   13.5900 	    6.0000 	   52.0000 	   21.7628 
    1.5030 	   13.6220 	    6.0000 	   52.0000 	   21.7949 
    1.5030 	   13.6510 	    6.0000 	   52.0000 	   21.8239 
    1.4267 	   13.6850 	    6.0000 	   52.0000 	   21.8579 
    1.4725 	   13.7140 	    6.0000 	   52.0000 	   21.8869 
    1.4878 	   13.7420 	    6.0000 	   52.0000 	   21.9149 
    1.4572 	   13.7710 	    6.0000 	   52.0000 	   21.9439 
    1.4420 	   13.8000 	    6.0000 	   52.0000 	   21.9729 
    1.1521 	   13.8270 	    6.0000 	   52.0000 	   21.9999 
    1.3352 	   13.8580 	    6.0000 	   52.0000 	   22.0309 
    1.4267 	   13.8860 	    6.0000 	   52.0000 	   22.0589 
    1.3962 	   13.9140 	    6.0000 	   52.0000 	   22.0869 
    1.4878 	   13.9420 	    6.0000 	   52.0000 	   22.1149 
    1.5030 	   13.9700 	    6.0000 	   52.0000 	   22.1429 
    1.3352 	   14.0010 	    6.0000 	   52.0000 	   22.1739 
    1.4725 	   14.0340 	    6.0000 	   52.0000 	   22.2069 
    1.2284 	   14.0690 	    6.0000 	   52.0000 	   22.2419 
    1.4420 	   14.1000 	    6.0000 	   52.0000 	   22.2729 
    1.4725 	   14.1310 	    6.0000 	   52.0000 	   22.3039 
    1.5335 	   14.1620 	    6.0000 	   52.0000 	   22.3349 
    1.4725 	   14.1920 	    6.0000 	   52.0000 	   22.3649 
    1.4420 	   14.2200 	    6.0000 	   52.0000 	   22.3929 
    1.5030 	   14.2480 	    6.0000 	   52.0000 	   22.4209 
    1.5946 	   14.2750 	    6.0000 	   52.0000 	   22.4479 
    1.4572 	   14.3030 	    6.0000 	   52.0000 	   22.4759 
    1.4725 	   14.3360 	    6.0000 	   52.0000 	   22.5089 
    1.5183 	   14.3630 	    6.0000 	   52.0000 	   22.5359 
    1.2131 	   14.3910 	    6.0000 	   52.0000 	   22.5639 
    1.4878 	   14.4190 	    6.0000 	   52.0000 	   22.5919 
    1.5335 	   14.4460 	    6.0000 	   52.0000 	   22.6189 
    1.4267 	   14.4740 	    6.0000 	   52.0000 	   22.6469 
    1.2741 	   14.5020 	    6.0000 	   52.0000 	   22.6749 
    1.6098 	   14.5320 	    6.0000 	   52.0000 	   22.7049 
    1.5030 	   14.5620 	    6.0000 	   52.0000 	   22.7349 
    1.5640 	   14.5920 	    6.0000 	   52.0000 	   22.7649 
    1.5488 	   14.6190 	    6.0000 	   52.0000 	   22.7919 
    1.5183 	   14.6470 	    6.0000 	   52.0000 	   22.8199 
    1.4267 	   14.6750 	    6.0000 	   52.0000 	   22.8479 
    1.3504 	   14.7030 	    6.0000 	   52.0000 	   22.8759 
    1.4420 	   14.7320 	    6.0000 	   52.0000 	   22.9049 
    1.1215 	   14.7610 	    6.0000 	   52.0000 	   22.9339 
    1.6098 	   14.7900 	    6.0000 	   52.0000 	   22.9629 
    1.6403 	   14.8210 	    6.0000 	   52.0000 	   22.9939 
    1.4725 	   14.8480 	    6.0000 	   52.0000 	   23.0209 
    1.4420 	   14.8750 	    6.0000 	   52.0000 	   23.0479 
    1.6556 	   14.9050 	    6.0000 	   52.0000 	   23.0779 
    1.5030 	   14.9390 	    6.0000 	   52.0000 	   23.1119 
    1.4572 	   14.9720 	    6.0000 	   52.0000 	   23.1449 
    1.5640 	   15.0020 	    6.0000 	   52.0000 	   23.1749 
    1.5335 	   15.0290 	    6.0000 	   52.0000 	   23.2019 
    1.5335 	   15.0610 	    6.0000 	   52.0000 	   23.2339 
    1.5640 	   15.0900 	    6.0000 	   52.0000 	   23.2629 
    1.5183 	   15.1190 	    6.0000 	   52.0000 	   23.2919 
    1.5030 	   15.1470 	    6.0000 	   52.0000 	   23.3199 
    1.5946 	   15.1780 	    6.0000 	   52.0000 	   23.3509 
    1.5030 	   15.2110 	    6.0000 	   52.0000 	   23.3839 
    1.5793 	   15.2420 	    6.0000 	   52.0000 	   23.4149 
    1.6098 	   15.2750 	    6.0000 	   52.0000 	   23.4479 
    1.5030 	   15.3080 	    6.0000 	   52.0000 	   23.4809 
    1.7472 	   15.3460 	    6.0000 	   52.0000 	   23.5189 
    1.5030 	   15.3780 	    6.0000 	   52.0000 	   23.5510 
    1.5793 	   15.4130 	    6.0000 	   52.0000 	   23.5860 
    1.5946 	   15.4430 	    6.0000 	   52.0000 	   23.6160 
    1.4725 	   15.4740 	    6.0000 	   52.0000 	   23.6470 
    1.5335 	   15.5070 	    6.0000 	   52.0000 	   23.6800 
    1.6251 	   15.5430 	    6.0000 	   52.0000 	   23.7160 
    1.5640 	   15.5810 	    6.0000 	   52.0000 	   23.7540 
    1.5030 	   15.6110 	    6.0000 	   52.0000 	   23.7840 
    1.5793 	   15.6400 	    6.0000 	   52.0000 	   23.8130 
    1.7014 	   15.6710 	    6.0000 	   52.0000 	   23.8440 
    1.5640 	   15.6990 	    6.0000 	   52.0000 	   23.8720 
    1.6251 	   15.7270 	    6.0000 	   52.0000 	   23.9000 
    1.7472 	   15.7560 	    6.0000 	   52.0000 	   23.9290 
    1.5488 	   15.7850 	    6.0000 	   52.0000 	   23.9580 
    1.5946 	   15.8170 	    6.0000 	   52.0000 	   23.9900 
    1.5335 	   15.8430 	    6.0000 	   52.0000 	   24.0160 
    1.5640 	   15.8700 	    6.0000 	   52.0000 	   24.0430 
    1.3046 	   15.8980 	    6.0000 	   52.0000 	   24.0710 
    1.5946 	   15.9260 	    6.0000 	   52.0000 	   24.0990 
    1.6403 	   15.9540 	    6.0000 	   52.0000 	   24.1270 
    1.5793 	   15.9850 	    6.0000 	   52.0000 	   24.1580 
    1.5946 	   16.0170 	    6.0000 	   52.0000 	   24.1900 
    1.5183 	   16.0480 	    6.0000 	   52.0000 	   24.2210 
    1.6861 	   16.0820 	    6.0000 	   52.0000 	   24.2550 
    1.5946 	   16.1100 	    6.0000 	   52.0000 	   24.2830 
    1.6098 	   16.1390 	    6.0000 	   52.0000 	   24.3120 
    1.6403 	   16.1680 	    6.0000 	   52.0000 	   24.3410 
    1.5946 	   16.1960 	    6.0000 	   52.0000 	   24.3690 
    1.7166 	   16.2240 	    6.0000 	   52.0000 	   24.3970 
    1.8082 	   16.2550 	    6.0000 	   52.0000 	   24.4280 
    1.5335 	   16.2900 	    6.0000 	   52.0000 	   24.4630 
    1.6709 	   16.3570 	    6.0000 	   52.0000 	   24.5300 
    1.7014 	   16.3920 	    6.0000 	   52.0000 	   24.5650 
    1.5793 	   16.4220 	    6.0000 	   52.0000 	   24.5950 
    1.8540 	   16.4530 	    6.0000 	   52.0000 	   24.6260 
    1.7319 	   16.4850 	    6.0000 	   52.0000 	   24.6580 
    1.3046 	   16.5160 	    6.0000 	   52.0000 	   24.6890 
    1.6251 	   16.5470 	    6.0000 	   52.0000 	   24.7200 
    1.7014 	   16.5810 	    6.0000 	   52.0000 	   24.7540 
    1.7014 	   16.6120 	    6.0000 	   52.0000 	   24.7850 
    1.6861 	   16.6410 	    6.0000 	   52.0000 	   24.8140 
    1.8235 	   16.6710 	    6.0000 	   52.0000 	   24.8440 
    1.5488 	   16.7020 	    6.0000 	   52.0000 	   24.8750 
    1.7166 	   16.7310 	    6.0000 	   52.0000 	   24.9040 
    1.6556 	   16.7600 	    6.0000 	   52.0000 	   24.9330 
    1.6709 	   16.7890 	    6.0000 	   52.0000 	   24.9620 
    1.6251 	   16.8190 	    6.0000 	   52.0000 	   24.9920 
    1.7166 	   16.8460 	    6.0000 	   52.0000 	   25.0190 
    1.6556 	   16.8730 	    6.0000 	   52.0000 	   25.0460 
    1.6403 	   16.9010 	    6.0000 	   52.0000 	   25.0740 
    1.6556 	   16.9290 	    6.0000 	   52.0000 	   25.1020 
    1.7624 	   16.9580 	    6.0000 	   52.0000 	   25.1310 
    1.6861 	   16.9860 	    6.0000 	   52.0000 	   25.1590 
    1.7166 	   17.0140 	    6.0000 	   52.0000 	   25.1870 
    1.5793 	   17.0420 	    6.0000 	   52.0000 	   25.2150 
    1.5640 	   17.0730 	    6.0000 	   52.0000 	   25.2460 
    1.7624 	   17.1040 	    6.0000 	   52.0000 	   25.2771 
    1.7472 	   17.1350 	    6.0000 	   52.0000 	   25.3081 
    1.7319 	   17.1670 	    6.0000 	   52.0000 	   25.3401 
    1.7014 	   17.1990 	    6.0000 	   52.0000 	   25.3721 
    1.7929 	   17.2300 	    6.0000 	   52.0000 	   25.4031 
    1.8540 	   17.2620 	    6.0000 	   52.0000 	   25.4351 
    1.6556 	   17.2940 	    6.0000 	   52.0000 	   25.4671 
    1.5793 	   17.3270 	    6.0000 	   52.0000 	   25.5001 
    1.8387 	   17.3610 	    6.0000 	   52.0000 	   25.5341 
    1.6251 	   17.3900 	    6.0000 	   52.0000 	   25.5631 
    1.9303 	   17.4200 	    6.0000 	   52.0000 	   25.5931 
    1.6861 	   17.4490 	    6.0000 	   52.0000 	   25.6221 
    1.7777 	   17.4800 	    6.0000 	   52.0000 	   25.6531 
    1.8235 	   17.5070 	    6.0000 	   52.0000 	   25.6801 
    1.6709 	   17.5380 	    6.0000 	   52.0000 	   25.7111 
    1.6098 	   17.5720 	    6.0000 	   52.0000 	   25.7451 
    1.7014 	   17.6010 	    6.0000 	   52.0000 	   25.7741 
    1.7319 	   17.6280 	    6.0000 	   52.0000 	   25.8011 
    1.7166 	   17.6580 	    6.0000 	   52.0000 	   25.8311 
    1.7319 	   17.6860 	    6.0000 	   52.0000 	   25.8591 
    1.7166 	   17.7140 	    6.0000 	   52.0000 	   25.8871 
    1.6861 	   17.7430 	    6.0000 	   52.0000 	   25.9161 
    1.7166 	   17.7720 	    6.0000 	   52.0000 	   25.9451 
    1.7014 	   17.8010 	    6.0000 	   52.0000 	   25.9741 
    1.6251 	   17.8300 	    6.0000 	   52.0000 	   26.0031 
    1.5946 	   17.8570 	    6.0000 	   52.0000 	   26.0301 
    1.8845 	   17.8850 	    6.0000 	   52.0000 	   26.0581 
    1.7014 	   17.9140 	    6.0000 	   52.0000 	   26.0871 
    1.7166 	   17.9440 	    6.0000 	   52.0000 	   26.1171 
    1.9150 	   17.9760 	    6.0000 	   52.0000 	   26.1491 
    1.7319 	   18.0050 	    6.0000 	   52.0000 	   26.1771 
    1.7319 	   18.0330 	    6.0000 	   52.0000 	   26.2061 
    1.8540 	   18.0640 	    6.0000 	   52.0000 	   26.2371 
    1.5793 	   18.0920 	    6.0000 	   52.0000 	   26.2651 
    1.8540 	   18.1210 	    6.0000 	   52.0000 	   26.2941 
    1.7319 	   18.1490 	    6.0000 	   52.0000 	   26.3221 
    1.8235 	   18.1770 	    6.0000 	   52.0000 	   26.3501 
    1.8082 	   18.2070 	    6.0000 	   52.0000 	   26.3801 
    1.6251 	   18.2360 	    6.0000 	   52.0000 	   26.4091 
    1.9608 	   18.2630 	    6.0000 	   52.0000 	   26.4361 
    1.7624 	   18.2930 	    6.0000 	   52.0000 	   26.4661 
    1.8692 	   18.3230 	    6.0000 	   52.0000 	   26.4961 
    1.8082 	   18.3570 	    6.0000 	   52.0000 	   26.5301 
    1.4878 	   18.3920 	    6.0000 	   52.0000 	   26.5651 
    1.8235 	   18.4230 	    6.0000 	   52.0000 	   26.5961 
    1.6556 	   18.4580 	    6.0000 	   52.0000 	   26.6311 
    1.7777 	   18.4910 	    6.0000 	   52.0000 	   26.6641 
    1.7777 	   18.5240 	    6.0000 	   52.0000 	   26.6971 
    1.7624 	   18.5540 	    6.0000 	   52.0000 	   26.7271 
    1.7166 	   18.5940 	    6.0000 	   52.0000 	   26.7671 
    1.8387 	   18.6270 	    6.0000 	   52.0000 	   26.8001 
    1.8692 	   18.6580 	    6.0000 	   52.0000 	   26.8311 
    1.7472 	   18.6890 	    6.0000 	   52.0000 	   26.8621 
    1.8845 	   18.7200 	    6.0000 	   52.0000 	   26.8931 
    1.7777 	   18.7490 	    6.0000 	   52.0000 	   26.9221 
    1.7929 	   18.7790 	    6.0000 	   52.0000 	   26.9521 
    1.8997 	   18.8090 	    6.0000 	   52.0000 	   26.9821 
    1.7929 	   18.8380 	    6.0000 	   52.0000 	   27.0111 
    1.9608 	   18.8660 	    6.0000 	   52.0000 	   27.0392 
    1.7166 	   18.8950 	    6.0000 	   52.0000 	   27.0682 
    1.8235 	   18.9230 	    6.0000 	   52.0000 	   27.0962 
    1.4725 	   18.9550 	    6.0000 	   52.0000 	   27.1282 
    1.7319 	   18.9880 	    6.0000 	   52.0000 	   27.1612 
    1.8082 	   19.0220 	    6.0000 	   52.0000 	   27.1952 
    1.8997 	   19.0560 	    6.0000 	   52.0000 	   27.2292 
    1.9455 	   19.0920 	    6.0000 	   52.0000 	   27.2652 
    1.7624 	   19.1260 	    6.0000 	   52.0000 	   27.2992 
    1.9150 	   19.1590 	    6.0000 	   52.0000 	   27.3322 
    1.9455 	   19.1920 	    6.0000 	   52.0000 	   27.3652 
    1.8082 	   19.2250 	    6.0000 	   52.0000 	   27.3982 
    1.8997 	   19.2590 	    6.0000 	   52.0000 	   27.4322 
    1.9150 	   19.2920 	    6.0000 	   52.0000 	   27.4652 
    2.0371 	   19.3220 	    6.0000 	   52.0000 	   27.4952 
    1.9150 	   19.3560 	    6.0000 	   52.0000 	   27.5292 
    1.8387 	   19.3920 	    6.0000 	   52.0000 	   27.5652 
    1.8692 	   19.4230 	    6.0000 	   52.0000 	   27.5962 
    2.0371 	   19.4570 	    6.0000 	   52.0000 	   27.6302 
    1.8082 	   19.4900 	    6.0000 	   52.0000 	   27.6632 
    1.8997 	   19.5220 	    6.0000 	   52.0000 	   27.6952 
    1.8845 	   19.5540 	    6.0000 	   52.0000 	   27.7272 
    1.7777 	   19.5890 	    6.0000 	   52.0000 	   27.7622 
    1.7624 	   19.6230 	    6.0000 	   52.0000 	   27.7962 
    1.6403 	   19.6540 	    6.0000 	   52.0000 	   27.8272 
    1.8082 	   19.6850 	    6.0000 	   52.0000 	   27.8582 
    1.8692 	   19.7150 	    6.0000 	   52.0000 	   27.8882 
    1.8387 	   19.7450 	    6.0000 	   52.0000 	   27.9182 
    2.0371 	   19.7730 	    6.0000 	   52.0000 	   27.9462 
    1.9608 	   19.8030 	    6.0000 	   52.0000 	   27.9762 
    1.7929 	   19.8320 	    6.0000 	   52.0000 	   28.0052 
    1.8387 	   19.8600 	    6.0000 	   52.0000 	   28.0332 
    2.0523 	   19.8880 	    6.0000 	   52.0000 	   28.0612 
    1.9455 	   19.9170 	    6.0000 	   52.0000 	   28.0902 
    1.9455 	   19.9450 	    6.0000 	   52.0000 	   28.1182 
    1.9608 	   19.9740 	    6.0000 	   52.0000 	   28.1472 
    1.8997 	   20.0070 	    6.0000 	   52.0000 	   28.1802 
    1.6556 	   20.0390 	    6.0000 	   52.0000 	   28.2122 
    1.8540 	   20.0750 	    6.0000 	   52.0000 	   28.2482 
    1.9455 	   20.1060 	    6.0000 	   52.0000 	   28.2792 
    1.9150 	   20.1400 	    6.0000 	   52.0000 	   28.3132 
    1.8387 	   20.1740 	    6.0000 	   52.0000 	   28.3472 
    2.0218 	   20.2070 	    6.0000 	   52.0000 	   28.3802 
    1.8845 	   20.2430 	    6.0000 	   52.0000 	   28.4162 
    1.9455 	   20.2750 	    6.0000 	   52.0000 	   28.4482 
    1.9455 	   20.3090 	    6.0000 	   52.0000 	   28.4822 
    1.9150 	   20.3420 	    6.0000 	   52.0000 	   28.5152 
    1.9608 	   20.3760 	    6.0000 	   52.0000 	   28.5492 
    1.9608 	   20.4100 	    6.0000 	   52.0000 	   28.5832 
    1.8997 	   20.4430 	    6.0000 	   52.0000 	   28.6162 
    1.9760 	   20.4760 	    6.0000 	   52.0000 	   28.6492 
    1.6709 	   20.5110 	    6.0000 	   52.0000 	   28.6842 
    1.9913 	   20.5440 	    6.0000 	   52.0000 	   28.7172 
    2.0829 	   20.5790 	    6.0000 	   52.0000 	   28.7522 
    1.9608 	   20.6140 	    6.0000 	   52.0000 	   28.7873 
    2.0066 	   20.6470 	    6.0000 	   52.0000 	   28.8203 
    1.9913 	   20.6810 	    6.0000 	   52.0000 	   28.8543 
    1.9760 	   20.7110 	    6.0000 	   52.0000 	   28.8843 
    1.8540 	   20.7410 	    6.0000 	   52.0000 	   28.9143 
    1.9455 	   20.7710 	    6.0000 	   52.0000 	   28.9443 
    2.0676 	   20.8030 	    6.0000 	   52.0000 	   28.9763 
    2.0371 	   20.8330 	    6.0000 	   52.0000 	   29.0063 
    1.8235 	   20.8610 	    6.0000 	   52.0000 	   29.0343 
    2.0371 	   20.8890 	    6.0000 	   52.0000 	   29.0623 
    2.1439 	   20.9230 	    6.0000 	   52.0000 	   29.0963 
    1.9150 	   20.9580 	    6.0000 	   52.0000 	   29.1313 
    2.0829 	   20.9920 	    6.0000 	   52.0000 	   29.1653 
    1.9608 	   21.0250 	    6.0000 	   52.0000 	   29.1983 
    1.8082 	   21.0590 	    6.0000 	   52.0000 	   29.2323 
    2.0218 	   21.0920 	    6.0000 	   52.0000 	   29.2653 
    2.0981 	   21.1250 	    6.0000 	   52.0000 	   29.2983 
    1.9150 	   21.1590 	    6.0000 	   52.0000 	   29.3323 
    1.8997 	   21.1920 	    6.0000 	   52.0000 	   29.3643 
    1.8235 	   21.2260 	    6.0000 	   52.0000 	   29.3993 
    2.1134 	   21.2590 	    6.0000 	   52.0000 	   29.4323 
    1.9608 	   21.2920 	    6.0000 	   52.0000 	   29.4653 
    2.1134 	   21.3250 	    6.0000 	   52.0000 	   29.4983 
    2.1134 	   21.3580 	    6.0000 	   52.0000 	   29.5313 
    1.7624 	   21.3930 	    6.0000 	   52.0000 	   29.5663 
    2.0676 	   21.4250 	    6.0000 	   52.0000 	   29.5983 
    2.2049 	   21.4560 	    6.0000 	   52.0000 	   29.6293 
    2.0066 	   21.4900 	    6.0000 	   52.0000 	   29.6633 
    2.1439 	   21.5240 	    6.0000 	   52.0000 	   29.6973 
    1.9913 	   21.5600 	    6.0000 	   52.0000 	   29.7333 
    2.0523 	   21.5930 	    6.0000 	   52.0000 	   29.7663 
    2.0066 	   21.6290 	    6.0000 	   52.0000 	   29.8023 
    2.0066 	   21.6600 	    6.0000 	   52.0000 	   29.8333 
    2.1134 	   21.6910 	    6.0000 	   52.0000 	   29.8643 
    2.1286 	   21.7220 	    6.0000 	   52.0000 	   29.8953 
    2.0218 	   21.7540 	    6.0000 	   52.0000 	   29.9273 
    2.1286 	   21.7850 	    6.0000 	   52.0000 	   29.9583 
    2.1439 	   21.8160 	    6.0000 	   52.0000 	   29.9893 
    2.1134 	   21.8460 	    6.0000 	   52.0000 	   30.0193 
    1.8845 	   21.8750 	    6.0000 	   52.0000 	   30.0483 
    1.9303 	   21.9020 	    6.0000 	   52.0000 	   30.0753 
    2.0371 	   21.9310 	    6.0000 	   52.0000 	   30.1043 
    2.0676 	   21.9630 	    6.0000 	   52.0000 	   30.1363 
    1.9913 	   21.9970 	    6.0000 	   52.0000 	   30.1703 
    2.1286 	   22.0280 	    6.0000 	   52.0000 	   30.2013 
    1.8997 	   22.0570 	    6.0000 	   52.0000 	   30.2303 
    2.1286 	   22.0920 	    6.0000 	   52.0000 	   30.2653 
    2.0218 	   22.1260 	    6.0000 	   52.0000 	   30.2993 
    1.9608 	   22.1590 	    6.0000 	   52.0000 	   30.3323 
    2.0523 	   22.1920 	    6.0000 	   52.0000 	   30.3653 
    1.9455 	   22.2260 	    6.0000 	   52.0000 	   30.3993 
    1.9455 	   22.2610 	    6.0000 	   52.0000 	   30.4343 
    1.9455 	   22.2930 	    6.0000 	   52.0000 	   30.4663 
    1.9760 	   22.3250 	    6.0000 	   52.0000 	   30.4983 
    1.9455 	   22.3580 	    6.0000 	   52.0000 	   30.5314 
    2.0981 	   22.3910 	    6.0000 	   52.0000 	   30.5644 
    1.9608 	   22.4250 	    6.0000 	   52.0000 	   30.5974 
    1.8387 	   22.4570 	    6.0000 	   52.0000 	   30.6304 
    1.9150 	   22.4930 	    6.0000 	   52.0000 	   30.6664 
    2.0371 	   22.5290 	    6.0000 	   52.0000 	   30.7024 
    1.9455 	   22.5620 	    6.0000 	   52.0000 	   30.7354 
    2.0218 	   22.5980 	    6.0000 	   52.0000 	   30.7714 
    1.7929 	   22.6320 	    6.0000 	   52.0000 	   30.8054 
    1.8387 	   22.6620 	    6.0000 	   52.0000 	   30.8354 
    1.9608 	   22.6930 	    6.0000 	   52.0000 	   30.8664 
    2.0981 	   22.7250 	    6.0000 	   52.0000 	   30.8984 
    2.0829 	   22.7570 	    6.0000 	   52.0000 	   30.9304 
    2.0829 	   22.7880 	    6.0000 	   52.0000 	   30.9614 
    1.9455 	   22.8180 	    6.0000 	   52.0000 	   30.9914 
    2.0829 	   22.8470 	    6.0000 	   52.0000 	   31.0204 
    2.0981 	   22.8770 	    6.0000 	   52.0000 	   31.0504 
    1.9760 	   22.9050 	    6.0000 	   52.0000 	   31.0784 
    2.0829 	   22.9330 	    6.0000 	   52.0000 	   31.1064 
    2.0066 	   22.9630 	    6.0000 	   52.0000 	   31.1364 
    1.8540 	   22.9970 	    6.0000 	   52.0000 	   31.1704 
    2.1286 	   23.0310 	    6.0000 	   52.0000 	   31.2044 
    2.1286 	   23.0650 	    6.0000 	   52.0000 	   31.2384 
    2.1744 	   23.1020 	    6.0000 	   52.0000 	   31.2754 
    2.0981 	   23.1350 	    6.0000 	   52.0000 	   31.3084 
    2.1592 	   23.1690 	    6.0000 	   52.0000 	   31.3424 
    2.0523 	   23.2030 	    6.0000 	   52.0000 	   31.3764 
    2.2354 	   23.2360 	    6.0000 	   52.0000 	   31.4094 
    1.9760 	   23.2690 	    6.0000 	   52.0000 	   31.4424 
    1.8997 	   23.3030 	    6.0000 	   52.0000 	   31.4764 
    2.0371 	   23.3350 	    6.0000 	   52.0000 	   31.5084 
    1.9150 	   23.3690 	    6.0000 	   52.0000 	   31.5424 
    1.9760 	   23.4030 	    6.0000 	   52.0000 	   31.5764 
    1.9760 	   23.4350 	    6.0000 	   52.0000 	   31.6084 
    1.9760 	   23.4680 	    6.0000 	   52.0000 	   31.6414 
    2.0523 	   23.5020 	    6.0000 	   52.0000 	   31.6754 
    2.0371 	   23.5370 	    6.0000 	   52.0000 	   31.7104 
    2.0523 	   23.5730 	    6.0000 	   52.0000 	   31.7464 
    1.9760 	   23.6070 	    6.0000 	   52.0000 	   31.7804 
    1.7929 	   23.6410 	    6.0000 	   52.0000 	   31.8144 
    1.9608 	   23.6720 	    6.0000 	   52.0000 	   31.8454 
    2.1744 	   23.7040 	    6.0000 	   52.0000 	   31.8774 
    1.9608 	   23.7350 	    6.0000 	   52.0000 	   31.9084 
    2.1286 	   23.7650 	    6.0000 	   52.0000 	   31.9384 
    1.9760 	   23.7950 	    6.0000 	   52.0000 	   31.9684 
    1.9455 	   23.8260 	    6.0000 	   52.0000 	   31.9994 
    2.0218 	   23.8560 	    6.0000 	   52.0000 	   32.0294 
    1.8845 	   23.8850 	    6.0000 	   52.0000 	   32.0584 
    2.0523 	   23.9130 	    6.0000 	   52.0000 	   32.0864 
    2.0371 	   23.9410 	    6.0000 	   52.0000 	   32.1144 
    2.0066 	   23.9710 	    6.0000 	   52.0000 	   32.1444 
    1.8997 	   24.0000 	    6.0000 	   52.0000 	   32.1734 
    2.0523 	   24.0310 	    6.0000 	   52.0000 	   32.2044 
    1.8997 	   24.0650 	    6.0000 	   52.0000 	   32.2384 
    2.0066 	   24.0960 	    6.0000 	   52.0000 	   32.2695 
    2.0066 	   24.1250 	    6.0000 	   52.0000 	   32.2985 
    1.7472 	   24.1540 	    6.0000 	   52.0000 	   32.3275 
    1.9455 	   24.1870 	    6.0000 	   52.0000 	   32.3605 
    2.1592 	   24.2210 	    6.0000 	   52.0000 	   32.3945 
    2.0371 	   24.2560 	    6.0000 	   52.0000 	   32.4295 
    2.0218 	   24.2910 	    6.0000 	   52.0000 	   32.4645 
    1.9303 	   24.3260 	    6.0000 	   52.0000 	   32.4995 
    2.0981 	   24.3590 	    6.0000 	   52.0000 	   32.5325 
    2.1439 	   24.3950 	    6.0000 	   52.0000 	   32.5685 
    2.1286 	   24.4280 	    6.0000 	   52.0000 	   32.6015 
    2.0523 	   24.4600 	    6.0000 	   52.0000 	   32.6335 
    1.9303 	   24.4940 	    6.0000 	   52.0000 	   32.6675 
    2.0523 	   24.5270 	    6.0000 	   52.0000 	   32.7005 
    1.9150 	   24.5610 	    6.0000 	   52.0000 	   32.7345 
    1.9913 	   24.5960 	    6.0000 	   52.0000 	   32.7695 
    1.9150 	   24.6300 	    6.0000 	   52.0000 	   32.8035 
    2.1897 	   24.6630 	    6.0000 	   52.0000 	   32.8365 
    2.0829 	   24.6970 	    6.0000 	   52.0000 	   32.8705 
    2.0371 	   24.7280 	    6.0000 	   52.0000 	   32.9015 
    2.0218 	   24.7570 	    6.0000 	   52.0000 	   32.9305 
    2.0676 	   24.7880 	    6.0000 	   52.0000 	   32.9615 
    2.0218 	   24.8190 	    6.0000 	   52.0000 	   32.9925 
    1.9608 	   24.8490 	    6.0000 	   52.0000 	   33.0225 
    2.1134 	   24.8810 	    6.0000 	   52.0000 	   33.0545 
    2.2049 	   24.9090 	    6.0000 	   52.0000 	   33.0825 
    1.9760 	   24.9390 	    6.0000 	   52.0000 	   33.1125 
    2.1439 	   24.9690 	    6.0000 	   52.0000 	   33.1425 
    2.0981 	   25.0030 	    6.0000 	   52.0000 	   33.1765 
    2.0066 	   25.0370 	    6.0000 	   52.0000 	   33.2095 
    1.9303 	   25.0720 	    6.0000 	   52.0000 	   33.2455 
    2.0066 	   25.1060 	    6.0000 	   52.0000 	   33.2795 
    1.9608 	   25.1400 	    6.0000 	   52.0000 	   33.3135 
    2.0066 	   25.1760 	    6.0000 	   52.0000 	   33.3495 
    1.6556 	   25.2100 	    6.0000 	   52.0000 	   33.3835 
    1.8997 	   25.2450 	    6.0000 	   52.0000 	   33.4185 
    1.9760 	   25.2780 	    6.0000 	   52.0000 	   33.4515 
    1.9913 	   25.3120 	    6.0000 	   52.0000 	   33.4855 
    2.1744 	   25.3450 	    6.0000 	   52.0000 	   33.5185 
    2.0218 	   25.3770 	    6.0000 	   52.0000 	   33.5505 
    2.1592 	   25.4120 	    6.0000 	   52.0000 	   33.5855 
    2.0371 	   25.4470 	    6.0000 	   52.0000 	   33.6205 
    2.1439 	   25.4790 	    6.0000 	   52.0000 	   33.6525 
    1.9608 	   25.5110 	    6.0000 	   52.0000 	   33.6845 
    1.6709 	   25.5460 	    6.0000 	   52.0000 	   33.7195 
    1.8997 	   25.5820 	    6.0000 	   52.0000 	   33.7555 
    1.8997 	   25.6150 	    6.0000 	   52.0000 	   33.7885 
    1.6861 	   25.6490 	    6.0000 	   52.0000 	   33.8225 
    1.8082 	   25.6810 	    6.0000 	   52.0000 	   33.8545 
    1.7472 	   25.7200 	    6.0000 	   52.0000 	   33.8935 
    2.0371 	   25.7510 	    6.0000 	   52.0000 	   33.9245 
    1.9760 	   25.7810 	    6.0000 	   52.0000 	   33.9545 
    1.9455 	   25.8100 	    6.0000 	   52.0000 	   33.9835 
    1.9913 	   25.8410 	    6.0000 	   52.0000 	   34.0135 
    1.8997 	   25.8710 	    6.0000 	   52.0000 	   34.0446 
    1.9150 	   25.9000 	    6.0000 	   52.0000 	   34.0736 
    1.9608 	   25.9280 	    6.0000 	   52.0000 	   34.1016 
    2.1592 	   25.9580 	    6.0000 	   52.0000 	   34.1316 
    1.9608 	   25.9870 	    6.0000 	   52.0000 	   34.1606 
    2.0981 	   26.0200 	    6.0000 	   52.0000 	   34.1936 
    2.1439 	   26.0520 	    6.0000 	   52.0000 	   34.2246 
    1.9455 	   26.0900 	    6.0000 	   52.0000 	   34.2626 
    2.0676 	   26.1230 	    6.0000 	   52.0000 	   34.2956 
    1.9303 	   26.1520 	    6.0000 	   52.0000 	   34.3246 
    2.1592 	   26.1830 	    6.0000 	   52.0000 	   34.3556 
    1.8387 	   26.2120 	    6.0000 	   52.0000 	   34.3846 
    1.8082 	   26.2420 	    6.0000 	   52.0000 	   34.4146 
    2.2049 	   26.2740 	    6.0000 	   52.0000 	   34.4466 
    1.8997 	   26.3040 	    6.0000 	   52.0000 	   34.4766 
    2.0066 	   26.3320 	    6.0000 	   52.0000 	   34.5046 
    1.9303 	   26.3620 	    6.0000 	   52.0000 	   34.5346 
    1.8387 	   26.3920 	    6.0000 	   52.0000 	   34.5646 
    2.0371 	   26.4220 	    6.0000 	   52.0000 	   34.5946 
    2.1134 	   26.4550 	    6.0000 	   52.0000 	   34.6276 
    1.9608 	   26.4870 	    6.0000 	   52.0000 	   34.6596 
    1.9608 	   26.5160 	    6.0000 	   52.0000 	   34.6886 
    1.9303 	   26.5460 	    6.0000 	   52.0000 	   34.7186 
    1.9913 	   26.5790 	    6.0000 	   52.0000 	   34.7516 
    2.0371 	   26.6150 	    6.0000 	   52.0000 	   34.7876 
    2.0066 	   26.6470 	    6.0000 	   52.0000 	   34.8196 
    1.9760 	   26.6810 	    6.0000 	   52.0000 	   34.8536 
    1.9303 	   26.7140 	    6.0000 	   52.0000 	   34.8866 
    1.9150 	   26.7470 	    6.0000 	   52.0000 	   34.9196 
    1.9608 	   26.7790 	    6.0000 	   52.0000 	   34.9516 
    1.9455 	   26.8100 	    6.0000 	   52.0000 	   34.9826 
    1.9303 	   26.8410 	    6.0000 	   52.0000 	   35.0136 
    2.0371 	   26.8720 	    6.0000 	   52.0000 	   35.0446 
    2.0829 	   26.9010 	    6.0000 	   52.0000 	   35.0736 
    1.8845 	   26.9300 	    6.0000 	   52.0000 	   35.1026 
    2.0981 	   26.9580 	    6.0000 	   52.0000 	   35.1306 
    2.0829 	   26.9900 	    6.0000 	   52.0000 	   35.1626 
    2.0981 	   27.0220 	    6.0000 	   52.0000 	   35.1946 
    1.9150 	   27.0560 	    6.0000 	   52.0000 	   35.2286 
    1.9760 	   27.0930 	    6.0000 	   52.0000 	   35.2656 
    2.0066 	   27.1290 	    6.0000 	   52.0000 	   35.3016 
    2.1134 	   27.1640 	    6.0000 	   52.0000 	   35.3366 
    1.9303 	   27.2000 	    6.0000 	   52.0000 	   35.3726 
    2.0523 	   27.2340 	    6.0000 	   52.0000 	   35.4066 
    2.0066 	   27.2710 	    6.0000 	   52.0000 	   35.4436 
    2.0066 	   27.3050 	    6.0000 	   52.0000 	   35.4776 
    1.9913 	   27.3400 	    6.0000 	   52.0000 	   35.5126 
    1.9150 	   27.3740 	    6.0000 	   52.0000 	   35.5466 
    1.9150 	   27.4070 	    6.0000 	   52.0000 	   35.5796 
    1.9608 	   27.4430 	    6.0000 	   52.0000 	   35.6146 
    2.0371 	   27.4770 	    6.0000 	   52.0000 	   35.6496 
    1.9455 	   27.5110 	    6.0000 	   52.0000 	   35.6836 
    2.0371 	   27.5440 	    6.0000 	   52.0000 	   35.7166 
    2.0829 	   27.5820 	    6.0000 	   52.0000 	   35.7547 
    1.9913 	   27.6160 	    6.0000 	   52.0000 	   35.7887 
    1.8387 	   27.6490 	    6.0000 	   52.0000 	   35.8217 
    2.1897 	   27.6810 	    6.0000 	   52.0000 	   35.8537 
    2.0371 	   27.7120 	    6.0000 	   52.0000 	   35.8847 
    2.0981 	   27.7480 	    6.0000 	   52.0000 	   35.9207 
    1.9760 	   27.7800 	    6.0000 	   52.0000 	   35.9527 
    2.0523 	   27.8100 	    6.0000 	   52.0000 	   35.9827 
    2.0371 	   27.8420 	    6.0000 	   52.0000 	   36.0147 
    2.0066 	   27.8740 	    6.0000 	   52.0000 	   36.0467 
    1.9913 	   27.9040 	    6.0000 	   52.0000 	   36.0767 
    1.9303 	   27.9330 	    6.0000 	   52.0000 	   36.1057 
    2.0981 	   27.9650 	    6.0000 	   52.0000 	   36.1377 
    2.0371 	   27.9980 	    6.0000 	   52.0000 	   36.1707 
    1.5946 	   28.0320 	    6.0000 	   52.0000 	   36.2047 
    2.0371 	   28.0660 	    6.0000 	   52.0000 	   36.2387 
    1.9455 	   28.1050 	    6.0000 	   52.0000 	   36.2777 
    2.0523 	   28.1390 	    6.0000 	   52.0000 	   36.3117 
    1.7929 	   28.1740 	    6.0000 	   52.0000 	   36.3467 
    1.9760 	   28.2090 	    6.0000 	   52.0000 	   36.3817 
    1.9760 	   28.2430 	    6.0000 	   52.0000 	   36.4157 
    1.9303 	   28.2790 	    6.0000 	   52.0000 	   36.4517 
    1.8997 	   28.3140 	    6.0000 	   52.0000 	   36.4867 
    2.0829 	   28.3470 	    6.0000 	   52.0000 	   36.5197 
    1.9303 	   28.3800 	    6.0000 	   52.0000 	   36.5527 
    2.0066 	   28.4140 	    6.0000 	   52.0000 	   36.5867 
    2.2354 	   28.4460 	    6.0000 	   52.0000 	   36.6187 
    2.0066 	   28.4830 	    6.0000 	   52.0000 	   36.6557 
    1.8387 	   28.5180 	    6.0000 	   52.0000 	   36.6907 
    1.9760 	   28.5520 	    6.0000 	   52.0000 	   36.7247 
    2.0523 	   28.5910 	    6.0000 	   52.0000 	   36.7637 
    2.1439 	   28.6250 	    6.0000 	   52.0000 	   36.7977 
    1.8692 	   28.6590 	    6.0000 	   52.0000 	   36.8317 
    1.9760 	   28.6920 	    6.0000 	   52.0000 	   36.8647 
    1.9150 	   28.7230 	    6.0000 	   52.0000 	   36.8957 
    1.9150 	   28.7560 	    6.0000 	   52.0000 	   36.9287 
    1.8692 	   28.7900 	    6.0000 	   52.0000 	   36.9627 
    2.1592 	   28.8220 	    6.0000 	   52.0000 	   36.9947 
    2.0829 	   28.8530 	    6.0000 	   52.0000 	   37.0257 
    1.9913 	   28.8840 	    6.0000 	   52.0000 	   37.0567 
    2.1134 	   28.9130 	    6.0000 	   52.0000 	   37.0857 
    1.8845 	   28.9420 	    6.0000 	   52.0000 	   37.1147 
    2.1897 	   28.9710 	    6.0000 	   52.0000 	   37.1437 
    1.9608 	   29.0030 	    6.0000 	   52.0000 	   37.1757 
    1.9760 	   29.0370 	    6.0000 	   52.0000 	   37.2097 
    1.9455 	   29.0750 	    6.0000 	   52.0000 	   37.2477 
    1.9913 	   29.1100 	    6.0000 	   52.0000 	   37.2827 
    1.9608 	   29.1430 	    6.0000 	   52.0000 	   37.3157 
    1.8997 	   29.1790 	    6.0000 	   52.0000 	   37.3517 
    1.7624 	   29.2130 	    6.0000 	   52.0000 	   37.3857 
    1.9455 	   29.2490 	    6.0000 	   52.0000 	   37.4217 
    2.0371 	   29.2830 	    6.0000 	   52.0000 	   37.4557 
    1.9913 	   29.3170 	    6.0000 	   52.0000 	   37.4897 
    1.9150 	   29.3500 	    6.0000 	   52.0000 	   37.5228 
    1.9303 	   29.3860 	    6.0000 	   52.0000 	   37.5588 
    1.9150 	   29.4200 	    6.0000 	   52.0000 	   37.5928 
    2.0981 	   29.4540 	    6.0000 	   52.0000 	   37.6268 
    1.9150 	   29.4870 	    6.0000 	   52.0000 	   37.6598 
    2.1744 	   29.5230 	    6.0000 	   52.0000 	   37.6958 
    1.9150 	   29.5560 	    6.0000 	   52.0000 	   37.7288 
    1.8845 	   29.5950 	    6.0000 	   52.0000 	   37.7678 
    1.9150 	   29.6300 	    6.0000 	   52.0000 	   37.8028 
    1.9303 	   29.6650 	    6.0000 	   52.0000 	   37.8378 
    1.9150 	   29.6980 	    6.0000 	   52.0000 	   37.8708 
    1.8845 	   29.7310 	    6.0000 	   52.0000 	   37.9038 
    2.0066 	   29.7640 	    6.0000 	   52.0000 	   37.9368 
    1.9455 	   29.7980 	    6.0000 	   52.0000 	   37.9708 
    1.9760 	   29.8300 	    6.0000 	   52.0000 	   38.0028 
    1.8997 	   29.8610 	    6.0000 	   52.0000 	   38.0338 
    2.0523 	   29.8930 	    6.0000 	   52.0000 	   38.0658 
    1.6403 	   29.9250 	    6.0000 	   52.0000 	   38.0978 
    1.9608 	   29.9550 	    6.0000 	   52.0000 	   38.1278 
    1.9608 	   29.9870 	    6.0000 	   52.0000 	   38.1598 
    1.8082 	   30.0200 	    6.0000 	   52.0000 	   38.1928 
    1.9913 	   30.0550 	    6.0000 	   52.0000 	   38.2278 
    2.0066 	   30.0950 	    6.0000 	   52.0000 	   38.2678 
    1.9455 	   30.1290 	    6.0000 	   52.0000 	   38.3018 
    1.9760 	   30.1640 	    6.0000 	   52.0000 	   38.3368 
    1.8692 	   30.1970 	    6.0000 	   52.0000 	   38.3698 
    1.9913 	   30.2320 	    6.0000 	   52.0000 	   38.4048 
    1.9608 	   30.2690 	    6.0000 	   52.0000 	   38.4418 
    1.8997 	   30.3050 	    6.0000 	   52.0000 	   38.4778 
    2.1286 	   30.3400 	    6.0000 	   52.0000 	   38.5128 
    1.7929 	   30.3750 	    6.0000 	   52.0000 	   38.5478 
    1.9913 	   30.4090 	    6.0000 	   52.0000 	   38.5818 
    2.0829 	   30.4440 	    6.0000 	   52.0000 	   38.6168 
    2.0218 	   30.4780 	    6.0000 	   52.0000 	   38.6508 
    1.9303 	   30.5130 	    6.0000 	   52.0000 	   38.6858 
    1.8845 	   30.5500 	    6.0000 	   52.0000 	   38.7228 
    1.9608 	   30.5880 	    6.0000 	   52.0000 	   38.7608 
    1.8235 	   30.6240 	    6.0000 	   52.0000 	   38.7968 
    1.9760 	   30.6610 	    6.0000 	   52.0000 	   38.8338 
    1.9303 	   30.6960 	    6.0000 	   52.0000 	   38.8688 
    2.0218 	   30.7300 	    6.0000 	   52.0000 	   38.9028 
    1.9455 	   30.7620 	    6.0000 	   52.0000 	   38.9348 
    1.9303 	   30.7950 	    6.0000 	   52.0000 	   38.9678 
    1.9608 	   30.8280 	    6.0000 	   52.0000 	   39.0008 
    2.0218 	   30.8590 	    6.0000 	   52.0000 	   39.0318 
    1.9913 	   30.8900 	    6.0000 	   52.0000 	   39.0628 
    1.8997 	   30.9210 	    6.0000 	   52.0000 	   39.0938 
    2.0981 	   30.9520 	    6.0000 	   52.0000 	   39.1248 
    1.9760 	   30.9810 	    6.0000 	   52.0000 	   39.1538 
    1.9760 	   31.0110 	    6.0000 	   52.0000 	   39.1838 
    1.8845 	   31.0430 	    6.0000 	   52.0000 	   39.2158 
    1.9150 	   31.0780 	    6.0000 	   52.0000 	   39.2509 
    2.1592 	   31.1120 	    6.0000 	   52.0000 	   39.2849 
    2.0676 	   31.1460 	    6.0000 	   52.0000 	   39.3189 
    1.9760 	   31.1810 	    6.0000 	   52.0000 	   39.3539 
    2.0829 	   31.2150 	    6.0000 	   52.0000 	   39.3879 
    1.7166 	   31.2500 	    6.0000 	   52.0000 	   39.4229 
    1.9303 	   31.2840 	    6.0000 	   52.0000 	   39.4569 
    2.0829 	   31.3180 	    6.0000 	   52.0000 	   39.4909 
    2.0676 	   31.3520 	    6.0000 	   52.0000 	   39.5249 
    2.0676 	   31.3850 	    6.0000 	   52.0000 	   39.5579 
    1.7929 	   31.4190 	    6.0000 	   52.0000 	   39.5919 
    1.7472 	   31.4540 	    6.0000 	   52.0000 	   39.6269 
    2.1134 	   31.4900 	    6.0000 	   52.0000 	   39.6629 
    1.7319 	   31.5240 	    6.0000 	   52.0000 	   39.6969 
    1.9455 	   31.5600 	    6.0000 	   52.0000 	   39.7329 
    2.0981 	   31.5950 	    6.0000 	   52.0000 	   39.7679 
    1.8997 	   31.6310 	    6.0000 	   52.0000 	   39.8039 
    1.9760 	   31.6650 	    6.0000 	   52.0000 	   39.8379 
    1.8387 	   31.6990 	    6.0000 	   52.0000 	   39.8719 
    1.9760 	   31.7310 	    6.0000 	   52.0000 	   39.9039 
    1.9150 	   31.7640 	    6.0000 	   52.0000 	   39.9369 
    1.9455 	   31.7980 	    6.0000 	   52.0000 	   39.9709 
    2.0218 	   31.8310 	    6.0000 	   52.0000 	   40.0039 
    1.8082 	   31.8630 	    6.0000 	   52.0000 	   40.0359 
    1.9150 	   31.8960 	    6.0000 	   52.0000 	   40.0689 
    1.8540 	   31.9280 	    6.0000 	   52.0000 	   40.1009 
    2.1134 	   31.9570 	    6.0000 	   52.0000 	   40.1299 
    2.1286 	   31.9870 	    6.0000 	   52.0000 	   40.1599 
    1.9303 	   32.0180 	    6.0000 	   52.0000 	   40.1909 
    1.9303 	   32.0480 	    6.0000 	   52.0000 	   40.2209 
    2.0829 	   32.0810 	    6.0000 	   52.0000 	   40.2539 
    1.9913 	   32.1120 	    6.0000 	   52.0000 	   40.2849 
    1.9608 	   32.1430 	    6.0000 	   52.0000 	   40.3159 
    1.8540 	   32.1740 	    6.0000 	   52.0000 	   40.3469 
    1.8997 	   32.2070 	    6.0000 	   52.0000 	   40.3799 
    1.9760 	   32.2420 	    6.0000 	   52.0000 	   40.4149 
    1.9455 	   32.2770 	    6.0000 	   52.0000 	   40.4499 
    1.9913 	   32.3110 	    6.0000 	   52.0000 	   40.4839 
    1.9303 	   32.3480 	    6.0000 	   52.0000 	   40.5209 
    1.9913 	   32.3820 	    6.0000 	   52.0000 	   40.5549 
    1.9760 	   32.4160 	    6.0000 	   52.0000 	   40.5889 
    1.9760 	   32.4520 	    6.0000 	   52.0000 	   40.6249 
    1.9150 	   32.4880 	    6.0000 	   52.0000 	   40.6609 
    1.9608 	   32.5240 	    6.0000 	   52.0000 	   40.6969 
    1.8082 	   32.5610 	    6.0000 	   52.0000 	   40.7339 
    1.7929 	   32.5960 	    6.0000 	   52.0000 	   40.7689 
    1.9608 	   32.6320 	    6.0000 	   52.0000 	   40.8049 
    1.9455 	   32.6650 	    6.0000 	   52.0000 	   40.8379 
    2.0523 	   32.6990 	    6.0000 	   52.0000 	   40.8719 
    2.0371 	   32.7330 	    6.0000 	   52.0000 	   40.9059 
    1.8997 	   32.7690 	    6.0000 	   52.0000 	   40.9419 
    1.7472 	   32.8010 	    6.0000 	   52.0000 	   40.9739 
    1.9760 	   32.8340 	    6.0000 	   52.0000 	   41.0070 
    1.8235 	   32.8680 	    6.0000 	   52.0000 	   41.0410 
    2.0523 	   32.8990 	    6.0000 	   52.0000 	   41.0720 
    1.8387 	   32.9330 	    6.0000 	   52.0000 	   41.1060 
    2.0218 	   32.9620 	    6.0000 	   52.0000 	   41.1350 
    1.9150 	   32.9920 	    6.0000 	   52.0000 	   41.1650 
    2.0523 	   33.0220 	    6.0000 	   52.0000 	   41.1950 
    1.9913 	   33.0540 	    6.0000 	   52.0000 	   41.2270 
    2.0066 	   33.0890 	    6.0000 	   52.0000 	   41.2620 
    1.9303 	   33.1210 	    6.0000 	   52.0000 	   41.2940 
    1.8540 	   33.1530 	    6.0000 	   52.0000 	   41.3260 
    1.9608 	   33.1840 	    6.0000 	   52.0000 	   41.3570 
    1.8845 	   33.2150 	    6.0000 	   52.0000 	   41.3880 
    1.9150 	   33.2460 	    6.0000 	   52.0000 	   41.4190 
    2.0371 	   33.2780 	    6.0000 	   52.0000 	   41.4510 
    2.0218 	   33.3090 	    6.0000 	   52.0000 	   41.4820 
    2.0676 	   33.3420 	    6.0000 	   52.0000 	   41.5150 
    1.8845 	   33.3740 	    6.0000 	   52.0000 	   41.5470 
    1.8845 	   33.4100 	    6.0000 	   52.0000 	   41.5830 
    1.8540 	   33.4470 	    6.0000 	   52.0000 	   41.6200 
    1.7624 	   33.4830 	    6.0000 	   52.0000 	   41.6560 
    1.8387 	   33.5170 	    6.0000 	   52.0000 	   41.6900 
    1.9150 	   33.5530 	    6.0000 	   52.0000 	   41.7260 
    2.1592 	   33.5870 	    6.0000 	   52.0000 	   41.7600 
    1.9760 	   33.6230 	    6.0000 	   52.0000 	   41.7960 
    1.9150 	   33.6600 	    6.0000 	   52.0000 	   41.8330 
    1.8997 	   33.6920 	    6.0000 	   52.0000 	   41.8650 
    1.8082 	   33.7260 	    6.0000 	   52.0000 	   41.8990 
    2.0829 	   33.7590 	    6.0000 	   52.0000 	   41.9320 
    1.9760 	   33.7900 	    6.0000 	   52.0000 	   41.9630 
    2.0829 	   33.8240 	    6.0000 	   52.0000 	   41.9970 
    1.9608 	   33.8560 	    6.0000 	   52.0000 	   42.0290 
    1.8997 	   33.8920 	    6.0000 	   52.0000 	   42.0640 
    2.0676 	   33.9240 	    6.0000 	   52.0000 	   42.0970 
    2.1134 	   33.9540 	    6.0000 	   52.0000 	   42.1270 
    1.9303 	   33.9870 	    6.0000 	   52.0000 	   42.1600 
    1.9608 	   34.0200 	    6.0000 	   52.0000 	   42.1930 
    1.8997 	   34.0530 	    6.0000 	   52.0000 	   42.2260 
    1.9760 	   34.0920 	    6.0000 	   52.0000 	   42.2650 
    1.8540 	   34.1270 	    6.0000 	   52.0000 	   42.3000 
    1.9608 	   34.1610 	    6.0000 	   52.0000 	   42.3340 
    1.9303 	   34.1960 	    6.0000 	   52.0000 	   42.3690 
    1.9608 	   34.2310 	    6.0000 	   52.0000 	   42.4040 
    1.8692 	   34.2670 	    6.0000 	   52.0000 	   42.4400 
    1.5946 	   34.3000 	    6.0000 	   52.0000 	   42.4730 
    1.5946 	   34.3370 	    6.0000 	   52.0000 	   42.5100 
    2.0218 	   34.3720 	    6.0000 	   52.0000 	   42.5450 
    1.7777 	   34.4100 	    6.0000 	   52.0000 	   42.5830 
    1.8692 	   34.4430 	    6.0000 	   52.0000 	   42.6160 
    1.8845 	   34.4750 	    6.0000 	   52.0000 	   42.6480 
    1.9760 	   34.5080 	    6.0000 	   52.0000 	   42.6810 
    1.9455 	   34.5410 	    6.0000 	   52.0000 	   42.7140 
    1.9760 	   34.5750 	    6.0000 	   52.0000 	   42.7481 
    1.9760 	   34.6060 	    6.0000 	   52.0000 	   42.7791 
    1.9760 	   34.6380 	    6.0000 	   52.0000 	   42.8111 
    1.8845 	   34.6710 	    6.0000 	   52.0000 	   42.8441 
    1.9455 	   34.7070 	    6.0000 	   52.0000 	   42.8801 
    1.9760 	   34.7390 	    6.0000 	   52.0000 	   42.9121 
    1.9608 	   34.7730 	    6.0000 	   52.0000 	   42.9461 
    1.8845 	   34.8050 	    6.0000 	   52.0000 	   42.9781 
    2.0829 	   34.8400 	    6.0000 	   52.0000 	   43.0131 
    1.8845 	   34.8730 	    6.0000 	   52.0000 	   43.0461 
    1.9303 	   34.9060 	    6.0000 	   52.0000 	   43.0791 
    1.8082 	   34.9410 	    6.0000 	   52.0000 	   43.1141 
    2.0676 	   34.9710 	    6.0000 	   52.0000 	   43.1441 
    1.8235 	   35.0020 	    6.0000 	   52.0000 	   43.1751 
    1.8845 	   35.0350 	    6.0000 	   52.0000 	   43.2081 
    1.9760 	   35.0690 	    6.0000 	   52.0000 	   43.2421 
    2.0218 	   35.1010 	    6.0000 	   52.0000 	   43.2741 
    1.8997 	   35.1350 	    6.0000 	   52.0000 	   43.3081 
    2.1134 	   35.1710 	    6.0000 	   52.0000 	   43.3441 
    1.9150 	   35.2060 	    6.0000 	   52.0000 	   43.3791 
    2.0523 	   35.2440 	    6.0000 	   52.0000 	   43.4171 
    2.0676 	   35.2780 	    6.0000 	   52.0000 	   43.4511 
    1.9150 	   35.3110 	    6.0000 	   52.0000 	   43.4841 
    1.9913 	   35.3480 	    6.0000 	   52.0000 	   43.5211 
    1.8845 	   35.3840 	    6.0000 	   52.0000 	   43.5571 
    1.8845 	   35.4220 	    6.0000 	   52.0000 	   43.5951 
    1.9608 	   35.4580 	    6.0000 	   52.0000 	   43.6311 
    1.6556 	   35.4930 	    6.0000 	   52.0000 	   43.6661 
    2.1134 	   35.5280 	    6.0000 	   52.0000 	   43.7011 
    1.8997 	   35.5650 	    6.0000 	   52.0000 	   43.7381 
    1.6709 	   35.6030 	    6.0000 	   52.0000 	   43.7761 
    1.8387 	   35.6380 	    6.0000 	   52.0000 	   43.8111 
    1.9303 	   35.6730 	    6.0000 	   52.0000 	   43.8461 
    1.8845 	   35.7090 	    6.0000 	   52.0000 	   43.8821 
    1.8692 	   35.7420 	    6.0000 	   52.0000 	   43.9151 
    1.9150 	   35.7750 	    6.0000 	   52.0000 	   43.9481 
    1.8997 	   35.8060 	    6.0000 	   52.0000 	   43.9791 
    1.8692 	   35.8400 	    6.0000 	   52.0000 	   44.0131 
    1.8235 	   35.8730 	    6.0000 	   52.0000 	   44.0461 
    1.8997 	   35.9090 	    6.0000 	   52.0000 	   44.0821 
    1.7929 	   35.9410 	    6.0000 	   52.0000 	   44.1141 
    1.8845 	   35.9720 	    6.0000 	   52.0000 	   44.1451 
    1.9608 	   36.0030 	    6.0000 	   52.0000 	   44.1761 
    2.0523 	   36.0350 	    6.0000 	   52.0000 	   44.2081 
    1.8997 	   36.0720 	    6.0000 	   52.0000 	   44.2451 
    2.0066 	   36.1070 	    6.0000 	   52.0000 	   44.2801 
    1.8540 	   36.1450 	    6.0000 	   52.0000 	   44.3181 
    1.9150 	   36.1840 	    6.0000 	   52.0000 	   44.3571 
    1.9913 	   36.2210 	    6.0000 	   52.0000 	   44.3941 
    1.9608 	   36.2570 	    6.0000 	   52.0000 	   44.4301 
    2.0371 	   36.2950 	    6.0000 	   52.0000 	   44.4681 
    1.8997 	   36.3310 	    6.0000 	   52.0000 	   44.5042 
    1.9608 	   36.3660 	    6.0000 	   52.0000 	   44.5392 
    1.8845 	   36.4030 	    6.0000 	   52.0000 	   44.5762 
    2.1286 	   36.4370 	    6.0000 	   52.0000 	   44.6102 
    1.7777 	   36.4710 	    6.0000 	   52.0000 	   44.6442 
    1.9303 	   36.5070 	    6.0000 	   52.0000 	   44.6802 
    1.7624 	   36.5450 	    6.0000 	   52.0000 	   44.7182 
    1.9303 	   36.5780 	    6.0000 	   52.0000 	   44.7512 
    1.8997 	   36.6100 	    6.0000 	   52.0000 	   44.7832 
    1.9150 	   36.6430 	    6.0000 	   52.0000 	   44.8162 
    2.0676 	   36.6790 	    6.0000 	   52.0000 	   44.8522 
    1.9455 	   36.7140 	    6.0000 	   52.0000 	   44.8872 
    1.8387 	   36.7470 	    6.0000 	   52.0000 	   44.9202 
    1.9303 	   36.7810 	    6.0000 	   52.0000 	   44.9542 
    1.6556 	   36.8150 	    6.0000 	   52.0000 	   44.9882 
    1.9150 	   36.8480 	    6.0000 	   52.0000 	   45.0212 
    1.8845 	   36.8830 	    6.0000 	   52.0000 	   45.0562 
    2.0523 	   36.9170 	    6.0000 	   52.0000 	   45.0902 
    2.0066 	   36.9480 	    6.0000 	   52.0000 	   45.1212 
    1.9608 	   36.9800 	    6.0000 	   52.0000 	   45.1532 
    1.8692 	   37.0110 	    6.0000 	   52.0000 	   45.1842 
    2.1286 	   37.0460 	    6.0000 	   52.0000 	   45.2192 
    1.8082 	   37.0840 	    6.0000 	   52.0000 	   45.2572 
    2.0981 	   37.1200 	    6.0000 	   52.0000 	   45.2932 
    1.9455 	   37.1570 	    6.0000 	   52.0000 	   45.3302 
    1.8692 	   37.1930 	    6.0000 	   52.0000 	   45.3662 
    1.9150 	   37.2290 	    6.0000 	   52.0000 	   45.4022 
    1.9303 	   37.2650 	    6.0000 	   52.0000 	   45.4382 
    1.8845 	   37.3020 	    6.0000 	   52.0000 	   45.4752 
    1.7624 	   37.3370 	    6.0000 	   52.0000 	   45.5102 
    1.8540 	   37.3730 	    6.0000 	   52.0000 	   45.5462 
    1.9760 	   37.4110 	    6.0000 	   52.0000 	   45.5842 
    1.8997 	   37.4450 	    6.0000 	   52.0000 	   45.6182 
    1.8692 	   37.4820 	    6.0000 	   52.0000 	   45.6552 
    1.8997 	   37.5170 	    6.0000 	   52.0000 	   45.6902 
    1.8235 	   37.5510 	    6.0000 	   52.0000 	   45.7242 
    1.8997 	   37.5860 	    6.0000 	   52.0000 	   45.7592 
    2.0371 	   37.6210 	    6.0000 	   52.0000 	   45.7942 
    2.1134 	   37.6570 	    6.0000 	   52.0000 	   45.8302 
    1.8387 	   37.6940 	    6.0000 	   52.0000 	   45.8672 
    2.0523 	   37.7300 	    6.0000 	   52.0000 	   45.9032 
    1.9608 	   37.7640 	    6.0000 	   52.0000 	   45.9372 
    2.0371 	   37.7960 	    6.0000 	   52.0000 	   45.9692 
    2.0981 	   37.8270 	    6.0000 	   52.0000 	   46.0002 
    1.8997 	   37.8600 	    6.0000 	   52.0000 	   46.0332 
    1.9913 	   37.8930 	    6.0000 	   52.0000 	   46.0662 
    1.9760 	   37.9260 	    6.0000 	   52.0000 	   46.0992 
    1.8845 	   37.9580 	    6.0000 	   52.0000 	   46.1312 
    1.8540 	   37.9950 	    6.0000 	   52.0000 	   46.1682 
    1.8997 	   38.0250 	    6.0000 	   52.0000 	   46.1982 
    1.7624 	   38.0580 	    6.0000 	   52.0000 	   46.2312 
    1.8997 	   38.0980 	    6.0000 	   52.0000 	   46.2713 
    1.8845 	   38.1360 	    6.0000 	   52.0000 	   46.3093 
    1.9760 	   38.1730 	    6.0000 	   52.0000 	   46.3463 
    1.8692 	   38.2100 	    6.0000 	   52.0000 	   46.3833 
    2.0066 	   38.2460 	    6.0000 	   52.0000 	   46.4193 
    2.1286 	   38.2820 	    6.0000 	   52.0000 	   46.4553 
    1.9608 	   38.3170 	    6.0000 	   52.0000 	   46.4903 
    1.9608 	   38.3530 	    6.0000 	   52.0000 	   46.5263 
    2.0066 	   38.3870 	    6.0000 	   52.0000 	   46.5603 
    1.7929 	   38.4230 	    6.0000 	   52.0000 	   46.5963 
    2.0371 	   38.4610 	    6.0000 	   52.0000 	   46.6343 
    1.8235 	   38.4970 	    6.0000 	   52.0000 	   46.6703 
    1.8845 	   38.5320 	    6.0000 	   52.0000 	   46.7053 
    1.9608 	   38.5690 	    6.0000 	   52.0000 	   46.7423 
    2.0676 	   38.6030 	    6.0000 	   52.0000 	   46.7763 
    1.8997 	   38.6400 	    6.0000 	   52.0000 	   46.8123 
    1.9455 	   38.6770 	    6.0000 	   52.0000 	   46.8503 
    1.8845 	   38.7130 	    6.0000 	   52.0000 	   46.8863 
    2.0523 	   38.7480 	    6.0000 	   52.0000 	   46.9213 
    1.8387 	   38.7830 	    6.0000 	   52.0000 	   46.9563 
    1.8997 	   38.8170 	    6.0000 	   52.0000 	   46.9903 
    1.9760 	   38.8510 	    6.0000 	   52.0000 	   47.0243 
    1.8692 	   38.8840 	    6.0000 	   52.0000 	   47.0573 
    1.9913 	   38.9170 	    6.0000 	   52.0000 	   47.0903 
    1.8845 	   38.9500 	    6.0000 	   52.0000 	   47.1233 
    2.0066 	   38.9850 	    6.0000 	   52.0000 	   47.1583 
    2.0371 	   39.0200 	    6.0000 	   52.0000 	   47.1933 
    1.9150 	   39.0520 	    6.0000 	   52.0000 	   47.2253 
    1.9913 	   39.0860 	    6.0000 	   52.0000 	   47.2593 
    1.9150 	   39.1190 	    6.0000 	   52.0000 	   47.2923 
    2.0066 	   39.1530 	    6.0000 	   52.0000 	   47.3263 
    1.8387 	   39.1870 	    6.0000 	   52.0000 	   47.3603 
    1.8845 	   39.2260 	    6.0000 	   52.0000 	   47.3993 
    1.9913 	   39.2630 	    6.0000 	   52.0000 	   47.4363 
    1.9608 	   39.3000 	    6.0000 	   52.0000 	   47.4733 
    2.0066 	   39.3350 	    6.0000 	   52.0000 	   47.5083 
    2.0676 	   39.3710 	    6.0000 	   52.0000 	   47.5443 
    1.7624 	   39.4060 	    6.0000 	   52.0000 	   47.5793 
    2.0523 	   39.4450 	    6.0000 	   52.0000 	   47.6183 
    1.9303 	   39.4820 	    6.0000 	   52.0000 	   47.6553 
    1.9150 	   39.5150 	    6.0000 	   52.0000 	   47.6883 
    1.9303 	   39.5510 	    6.0000 	   52.0000 	   47.7243 
    1.9150 	   39.5880 	    6.0000 	   52.0000 	   47.7613 
    1.9455 	   39.6250 	    6.0000 	   52.0000 	   47.7983 
    1.8692 	   39.6630 	    6.0000 	   52.0000 	   47.8363 
    1.8540 	   39.6990 	    6.0000 	   52.0000 	   47.8723 
    1.8997 	   39.7360 	    6.0000 	   52.0000 	   47.9093 
    1.9150 	   39.7700 	    6.0000 	   52.0000 	   47.9433 
    2.1134 	   39.8030 	    6.0000 	   52.0000 	   47.9763 
    1.9303 	   39.8360 	    6.0000 	   52.0000 	   48.0093 
    1.8692 	   39.8690 	    6.0000 	   52.0000 	   48.0424 
    1.9150 	   39.9020 	    6.0000 	   52.0000 	   48.0754 
    1.8845 	   39.9350 	    6.0000 	   52.0000 	   48.1084 
    1.9455 	   39.9690 	    6.0000 	   52.0000 	   48.1424 
    1.8387 	   40.0010 	    6.0000 	   52.0000 	   48.1744 
    2.0371 	   40.0330 	    6.0000 	   52.0000 	   48.2064 
    1.9608 	   40.0680 	    6.0000 	   52.0000 	   48.2414 
    1.8997 	   40.1010 	    6.0000 	   52.0000 	   48.2744 
    1.9608 	   40.1340 	    6.0000 	   52.0000 	   48.3074 
    1.9760 	   40.1700 	    6.0000 	   52.0000 	   48.3434 
    1.8235 	   40.2080 	    6.0000 	   52.0000 	   48.3814 
    1.9303 	   40.2450 	    6.0000 	   52.0000 	   48.4184 
    1.9455 	   40.2820 	    6.0000 	   52.0000 	   48.4554 
    1.8387 	   40.3170 	    6.0000 	   52.0000 	   48.4904 
    1.8540 	   40.3530 	    6.0000 	   52.0000 	   48.5264 
    1.9913 	   40.3900 	    6.0000 	   52.0000 	   48.5634 
    2.0066 	   40.4280 	    6.0000 	   52.0000 	   48.6014 
    1.8997 	   40.4650 	    6.0000 	   52.0000 	   48.6384 
    1.8692 	   40.5020 	    6.0000 	   52.0000 	   48.6754 
    1.8997 	   40.5410 	    6.0000 	   52.0000 	   48.7144 
    1.8845 	   40.5750 	    6.0000 	   52.0000 	   48.7484 
    2.0371 	   40.6120 	    6.0000 	   52.0000 	   48.7854 
    1.8997 	   40.6480 	    6.0000 	   52.0000 	   48.8214 
    2.0218 	   40.6830 	    6.0000 	   52.0000 	   48.8564 
    1.7166 	   40.7210 	    6.0000 	   52.0000 	   48.8944 
    1.8845 	   40.7580 	    6.0000 	   52.0000 	   48.9314 
    1.9455 	   40.7930 	    6.0000 	   52.0000 	   48.9664 
    1.8540 	   40.8280 	    6.0000 	   52.0000 	   49.0014 
    1.8387 	   40.8630 	    6.0000 	   52.0000 	   49.0364 
    1.8845 	   40.8980 	    6.0000 	   52.0000 	   49.0714 
    1.8692 	   40.9310 	    6.0000 	   52.0000 	   49.1044 
    2.0218 	   40.9640 	    6.0000 	   52.0000 	   49.1374 
    1.8540 	   40.9960 	    6.0000 	   52.0000 	   49.1694 
    1.9608 	   41.0320 	    6.0000 	   52.0000 	   49.2054 
    2.0371 	   41.0640 	    6.0000 	   52.0000 	   49.2374 
    2.1439 	   41.0990 	    6.0000 	   52.0000 	   49.2724 
    1.9608 	   41.1320 	    6.0000 	   52.0000 	   49.3054 
    1.8845 	   41.1660 	    6.0000 	   52.0000 	   49.3394 
    1.9913 	   41.2040 	    6.0000 	   52.0000 	   49.3774 
    1.9303 	   41.2410 	    6.0000 	   52.0000 	   49.4144 
    1.8997 	   41.2800 	    6.0000 	   52.0000 	   49.4534 
    1.9303 	   41.3160 	    6.0000 	   52.0000 	   49.4894 
    1.9760 	   41.3530 	    6.0000 	   52.0000 	   49.5264 
    1.8845 	   41.3910 	    6.0000 	   52.0000 	   49.5644 
    1.8845 	   41.4260 	    6.0000 	   52.0000 	   49.5994 
    1.8845 	   41.4640 	    6.0000 	   52.0000 	   49.6374 
    1.9608 	   41.5000 	    6.0000 	   52.0000 	   49.6734 
    1.8997 	   41.5360 	    6.0000 	   52.0000 	   49.7094 
    2.1134 	   41.5720 	    6.0000 	   52.0000 	   49.7454 
    1.9455 	   41.6070 	    6.0000 	   52.0000 	   49.7805 
    1.8387 	   41.6450 	    6.0000 	   52.0000 	   49.8185 
    2.0218 	   41.6800 	    6.0000 	   52.0000 	   49.8535 
    1.9150 	   41.7160 	    6.0000 	   52.0000 	   49.8895 
    1.9913 	   41.7540 	    6.0000 	   52.0000 	   49.9275 
    1.9760 	   41.7880 	    6.0000 	   52.0000 	   49.9615 
    2.0371 	   41.8240 	    6.0000 	   52.0000 	   49.9975 
    1.8692 	   41.8610 	    6.0000 	   52.0000 	   50.0345 
    1.8692 	   41.8950 	    6.0000 	   52.0000 	   50.0685 
    1.9913 	   41.9290 	    6.0000 	   52.0000 	   50.1025 
    2.0981 	   41.9630 	    6.0000 	   52.0000 	   50.1365 
    1.9303 	   41.9970 	    6.0000 	   52.0000 	   50.1705 
    1.8845 	   42.0290 	    6.0000 	   52.0000 	   50.2025 
    1.9455 	   42.0610 	    6.0000 	   52.0000 	   50.2345 
    1.9455 	   42.0960 	    6.0000 	   52.0000 	   50.2695 
    1.8540 	   42.1300 	    6.0000 	   52.0000 	   50.3035 
    1.9760 	   42.1620 	    6.0000 	   52.0000 	   50.3355 
    1.6709 	   42.1950 	    6.0000 	   52.0000 	   50.3675 
    1.9303 	   42.2290 	    6.0000 	   52.0000 	   50.4025 
    1.8540 	   42.2640 	    6.0000 	   52.0000 	   50.4375 
    1.9608 	   42.3000 	    6.0000 	   52.0000 	   50.4735 
    1.8692 	   42.3360 	    6.0000 	   52.0000 	   50.5095 
    2.0371 	   42.3730 	    6.0000 	   52.0000 	   50.5465 
    1.9455 	   42.4110 	    6.0000 	   52.0000 	   50.5845 
    1.8997 	   42.4490 	    6.0000 	   52.0000 	   50.6225 
    1.8540 	   42.4850 	    6.0000 	   52.0000 	   50.6585 
    1.8845 	   42.5230 	    6.0000 	   52.0000 	   50.6965 
    1.8997 	   42.5620 	    6.0000 	   52.0000 	   50.7355 
    1.9760 	   42.5990 	    6.0000 	   52.0000 	   50.7725 
    1.9913 	   42.6350 	    6.0000 	   52.0000 	   50.8085 
    1.9760 	   42.6720 	    6.0000 	   52.0000 	   50.8455 
    1.8845 	   42.7110 	    6.0000 	   52.0000 	   50.8845 
    1.7929 	   42.7470 	    6.0000 	   52.0000 	   50.9205 
    2.0218 	   42.7820 	    6.0000 	   52.0000 	   50.9555 
    1.9760 	   42.8160 	    6.0000 	   52.0000 	   50.9895 
    1.9303 	   42.8510 	    6.0000 	   52.0000 	   51.0245 
    2.1134 	   42.8850 	    6.0000 	   52.0000 	   51.0585 
    1.9150 	   42.9200 	    6.0000 	   52.0000 	   51.0935 
    1.9913 	   42.9550 	    6.0000 	   52.0000 	   51.1285 
    1.9760 	   42.9880 	    6.0000 	   52.0000 	   51.1615 
    1.8845 	   43.0190 	    6.0000 	   52.0000 	   51.1925 
    1.8692 	   43.0530 	    6.0000 	   52.0000 	   51.2265 
    1.9608 	   43.0890 	    6.0000 	   52.0000 	   51.2625 
    2.0829 	   43.1230 	    6.0000 	   52.0000 	   51.2965 
    1.8082 	   43.1560 	    6.0000 	   52.0000 	   51.3295 
    2.0371 	   43.1890 	    6.0000 	   52.0000 	   51.3625 
    1.9455 	   43.2260 	    6.0000 	   52.0000 	   51.3995 
    1.9760 	   43.2620 	    6.0000 	   52.0000 	   51.4355 
    1.7319 	   43.2970 	    6.0000 	   52.0000 	   51.4705 
    1.8387 	   43.3340 	    6.0000 	   52.0000 	   51.5075 
    2.0066 	   43.3680 	    6.0000 	   52.0000 	   51.5416 
    2.1134 	   43.4020 	    6.0000 	   52.0000 	   51.5756 
    1.9303 	   43.4340 	    6.0000 	   52.0000 	   51.6076 
    1.9455 	   43.4690 	    6.0000 	   52.0000 	   51.6426 
    1.9913 	   43.5040 	    6.0000 	   52.0000 	   51.6776 
    1.8387 	   43.5420 	    6.0000 	   52.0000 	   51.7146 
    1.9455 	   43.5780 	    6.0000 	   52.0000 	   51.7506 
    1.9913 	   43.6160 	    6.0000 	   52.0000 	   51.7886 
    2.0066 	   43.6510 	    6.0000 	   52.0000 	   51.8236 
    1.9455 	   43.6870 	    6.0000 	   52.0000 	   51.8596 
    2.0218 	   43.7220 	    6.0000 	   52.0000 	   51.8946 
    1.8540 	   43.7610 	    6.0000 	   52.0000 	   51.9336 
    2.0523 	   43.7960 	    6.0000 	   52.0000 	   51.9686 
    1.9455 	   43.8320 	    6.0000 	   52.0000 	   52.0046 
    2.0218 	   43.8670 	    6.0000 	   52.0000 	   52.0396 
    1.9303 	   43.9030 	    6.0000 	   52.0000 	   52.0756 
    1.8997 	   43.9390 	    6.0000 	   52.0000 	   52.1116 
    1.9150 	   43.9760 	    6.0000 	   52.0000 	   52.1486 
    1.8997 	   44.0100 	    6.0000 	   52.0000 	   52.1826 
    1.9303 	   44.0430 	    6.0000 	   52.0000 	   52.2156 
    1.8997 	   44.0790 	    6.0000 	   52.0000 	   52.2516 
    1.8692 	   44.1140 	    6.0000 	   52.0000 	   52.2866 
    1.9455 	   44.1510 	    6.0000 	   52.0000 	   52.3236 
    1.9455 	   44.1860 	    6.0000 	   52.0000 	   52.3586 
    1.8997 	   44.2200 	    6.0000 	   52.0000 	   52.3926 
    1.8845 	   44.2580 	    6.0000 	   52.0000 	   52.4306 
    1.8845 	   44.2940 	    6.0000 	   52.0000 	   52.4666 
    1.8997 	   44.3320 	    6.0000 	   52.0000 	   52.5046 
    1.7929 	   44.3680 	    6.0000 	   52.0000 	   52.5406 
    1.8692 	   44.4080 	    6.0000 	   52.0000 	   52.5806 
    1.8235 	   44.4450 	    6.0000 	   52.0000 	   52.6176 
    2.0523 	   44.4850 	    6.0000 	   52.0000 	   52.6576 
    1.9760 	   44.5210 	    6.0000 	   52.0000 	   52.6936 
    2.0829 	   44.5580 	    6.0000 	   52.0000 	   52.7306 
    1.8540 	   44.5950 	    6.0000 	   52.0000 	   52.7676 
    1.6403 	   44.6330 	    6.0000 	   52.0000 	   52.8056 
    1.9455 	   44.6690 	    6.0000 	   52.0000 	   52.8416 
    1.9303 	   44.7070 	    6.0000 	   52.0000 	   52.8796 
    1.8845 	   44.7450 	    6.0000 	   52.0000 	   52.9176 
    1.8692 	   44.7810 	    6.0000 	   52.0000 	   52.9536 
    1.8997 	   44.8170 	    6.0000 	   52.0000 	   52.9896 
    1.8082 	   44.8610 	    6.0000 	   52.0000 	   53.0336 
    1.8235 	   44.8960 	    6.0000 	   52.0000 	   53.0686 
    2.0371 	   44.9310 	    6.0000 	   52.0000 	   53.1036 
    1.9303 	   44.9640 	    6.0000 	   52.0000 	   53.1366 
    1.8692 	   44.9980 	    6.0000 	   52.0000 	   53.1706 
    1.8997 	   45.0310 	    6.0000 	   52.0000 	   53.2036 
    2.0371 	   45.0620 	    6.0000 	   52.0000 	   53.2346 
    1.7777 	   45.1000 	    6.0000 	   52.0000 	   53.2727 
    1.8540 	   45.1330 	    6.0000 	   52.0000 	   53.3057 
    1.6709 	   45.1680 	    6.0000 	   52.0000 	   53.3407 
    1.8692 	   45.2030 	    6.0000 	   52.0000 	   53.3757 
    1.8692 	   45.2360 	    6.0000 	   52.0000 	   53.4087 
    1.8387 	   45.2690 	    6.0000 	   52.0000 	   53.4417 
    1.8692 	   45.3030 	    6.0000 	   52.0000 	   53.4757 
    1.8540 	   45.3370 	    6.0000 	   52.0000 	   53.5097 
    1.9913 	   45.3700 	    6.0000 	   52.0000 	   53.5427 
    1.8997 	   45.4040 	    6.0000 	   52.0000 	   53.5767 
    1.9913 	   45.4380 	    6.0000 	   52.0000 	   53.6107 
    1.8082 	   45.4740 	    6.0000 	   52.0000 	   53.6467 
    1.8997 	   45.5120 	    6.0000 	   52.0000 	   53.6847 
    1.8997 	   45.5490 	    6.0000 	   52.0000 	   53.7217 
    1.9150 	   45.5880 	    6.0000 	   52.0000 	   53.7607 
    1.9303 	   45.6290 	    6.0000 	   52.0000 	   53.8017 
    1.8387 	   45.6660 	    6.0000 	   52.0000 	   53.8387 
    1.9150 	   45.7040 	    6.0000 	   52.0000 	   53.8767 
    1.9455 	   45.7420 	    6.0000 	   52.0000 	   53.9147 
    2.0066 	   45.7790 	    6.0000 	   52.0000 	   53.9517 
    2.0066 	   45.8150 	    6.0000 	   52.0000 	   53.9877 
    1.8692 	   45.8500 	    6.0000 	   52.0000 	   54.0227 
    1.9455 	   45.8850 	    6.0000 	   52.0000 	   54.0577 
    1.8540 	   45.9210 	    6.0000 	   52.0000 	   54.0937 
    1.7166 	   45.9550 	    6.0000 	   52.0000 	   54.1277 
    1.8387 	   45.9910 	    6.0000 	   52.0000 	   54.1637 
    1.8387 	   46.0230 	    6.0000 	   52.0000 	   54.1957 
    1.9760 	   46.0560 	    6.0000 	   52.0000 	   54.2287 
    1.8997 	   46.0920 	    6.0000 	   52.0000 	   54.2647 
    1.8845 	   46.1250 	    6.0000 	   52.0000 	   54.2977 
    1.6403 	   46.1580 	    6.0000 	   52.0000 	   54.3307 
    1.8540 	   46.1900 	    6.0000 	   52.0000 	   54.3627 
    2.0066 	   46.2250 	    6.0000 	   52.0000 	   54.3977 
    1.9303 	   46.2630 	    6.0000 	   52.0000 	   54.4357 
    1.9303 	   46.2990 	    6.0000 	   52.0000 	   54.4717 
    1.9303 	   46.3360 	    6.0000 	   52.0000 	   54.5087 
    1.9455 	   46.3740 	    6.0000 	   52.0000 	   54.5467 
    1.9150 	   46.4120 	    6.0000 	   52.0000 	   54.5847 
    1.9608 	   46.4490 	    6.0000 	   52.0000 	   54.6217 
    1.9760 	   46.4880 	    6.0000 	   52.0000 	   54.6607 
    1.9150 	   46.5260 	    6.0000 	   52.0000 	   54.6987 
    1.8845 	   46.5620 	    6.0000 	   52.0000 	   54.7347 
    1.8692 	   46.6000 	    6.0000 	   52.0000 	   54.7727 
    1.9303 	   46.6360 	    6.0000 	   52.0000 	   54.8087 
    1.8997 	   46.6720 	    6.0000 	   52.0000 	   54.8447 
    2.0523 	   46.7100 	    6.0000 	   52.0000 	   54.8827 
    1.8692 	   46.7470 	    6.0000 	   52.0000 	   54.9197 
    2.0218 	   46.7860 	    6.0000 	   52.0000 	   54.9587 
    1.8692 	   46.8230 	    6.0000 	   52.0000 	   54.9958 
    1.8692 	   46.8580 	    6.0000 	   52.0000 	   55.0308 
    1.7624 	   46.8940 	    6.0000 	   52.0000 	   55.0668 
    2.0676 	   46.9300 	    6.0000 	   52.0000 	   55.1028 
    1.8540 	   46.9640 	    6.0000 	   52.0000 	   55.1368 
    2.0371 	   46.9990 	    6.0000 	   52.0000 	   55.1718 
    1.8845 	   47.0320 	    6.0000 	   52.0000 	   55.2048 
    1.9303 	   47.0640 	    6.0000 	   52.0000 	   55.2368 
    1.9455 	   47.1010 	    6.0000 	   52.0000 	   55.2738 
    1.9303 	   47.1350 	    6.0000 	   52.0000 	   55.3078 
    1.8845 	   47.1690 	    6.0000 	   52.0000 	   55.3418 
    1.8540 	   47.2030 	    6.0000 	   52.0000 	   55.3758 
    1.7777 	   47.2370 	    6.0000 	   52.0000 	   55.4098 
    1.8692 	   47.2720 	    6.0000 	   52.0000 	   55.4448 
    1.8387 	   47.3090 	    6.0000 	   52.0000 	   55.4818 
    1.9303 	   47.3460 	    6.0000 	   52.0000 	   55.5188 
    2.0218 	   47.3810 	    6.0000 	   52.0000 	   55.5538 
    1.8387 	   47.4180 	    6.0000 	   52.0000 	   55.5908 
    1.9150 	   47.4550 	    6.0000 	   52.0000 	   55.6278 
    1.8540 	   47.4900 	    6.0000 	   52.0000 	   55.6628 
    2.0218 	   47.5280 	    6.0000 	   52.0000 	   55.7008 
    1.6098 	   47.5650 	    6.0000 	   52.0000 	   55.7378 
    1.6556 	   47.6040 	    6.0000 	   52.0000 	   55.7768 
    2.0981 	   47.6420 	    6.0000 	   52.0000 	   55.8148 
    1.8540 	   47.6770 	    6.0000 	   52.0000 	   55.8498 
    1.8387 	   47.7160 	    6.0000 	   52.0000 	   55.8888 
    1.8540 	   47.7540 	    6.0000 	   52.0000 	   55.9268 
    2.0218 	   47.7900 	    6.0000 	   52.0000 	   55.9628 
    1.8082 	   47.8250 	    6.0000 	   52.0000 	   55.9978 
    1.7929 	   47.8610 	    6.0000 	   52.0000 	   56.0338 
    1.8387 	   47.8970 	    6.0000 	   52.0000 	   56.0698 
    1.9760 	   47.9320 	    6.0000 	   52.0000 	   56.1048 
    1.8540 	   47.9660 	    6.0000 	   52.0000 	   56.1388 
    1.8540 	   48.0010 	    6.0000 	   52.0000 	   56.1738 
    1.9455 	   48.0330 	    6.0000 	   52.0000 	   56.2058 
    2.1592 	   48.0720 	    6.0000 	   52.0000 	   56.2448 
    1.8997 	   48.1060 	    6.0000 	   52.0000 	   56.2788 
    1.8845 	   48.1390 	    6.0000 	   52.0000 	   56.3118 
    1.7319 	   48.1720 	    6.0000 	   52.0000 	   56.3448 
    2.0981 	   48.2050 	    6.0000 	   52.0000 	   56.3778 
    2.1286 	   48.2390 	    6.0000 	   52.0000 	   56.4118 
    1.9913 	   48.2730 	    6.0000 	   52.0000 	   56.4458 
    1.9760 	   48.3130 	    6.0000 	   52.0000 	   56.4858 
    1.8387 	   48.3490 	    6.0000 	   52.0000 	   56.5218 
    2.0371 	   48.3880 	    6.0000 	   52.0000 	   56.5608 
    1.9608 	   48.4260 	    6.0000 	   52.0000 	   56.5988 
    1.9150 	   48.4630 	    6.0000 	   52.0000 	   56.6358 
    1.9150 	   48.5000 	    6.0000 	   52.0000 	   56.6728 
    1.9913 	   48.5370 	    6.0000 	   52.0000 	   56.7098 
    1.9303 	   48.5750 	    6.0000 	   52.0000 	   56.7478 
    1.8540 	   48.6120 	    6.0000 	   52.0000 	   56.7849 
    1.7472 	   48.6480 	    6.0000 	   52.0000 	   56.8209 
    1.9455 	   48.6840 	    6.0000 	   52.0000 	   56.8569 
    1.9303 	   48.7180 	    6.0000 	   52.0000 	   56.8909 
    1.8540 	   48.7550 	    6.0000 	   52.0000 	   56.9279 
    2.1134 	   48.7920 	    6.0000 	   52.0000 	   56.9649 
    1.8692 	   48.8290 	    6.0000 	   52.0000 	   57.0019 
    1.9303 	   48.8640 	    6.0000 	   52.0000 	   57.0369 
    2.0371 	   48.9030 	    6.0000 	   52.0000 	   57.0759 
    2.0066 	   48.9390 	    6.0000 	   52.0000 	   57.1119 
    2.0218 	   48.9730 	    6.0000 	   52.0000 	   57.1459 
    1.8845 	   49.0090 	    6.0000 	   52.0000 	   57.1819 
    1.8845 	   49.0420 	    6.0000 	   52.0000 	   57.2149 
    1.9760 	   49.0790 	    6.0000 	   52.0000 	   57.2519 
    1.8082 	   49.1130 	    6.0000 	   52.0000 	   57.2859 
    1.9760 	   49.1480 	    6.0000 	   52.0000 	   57.3209 
    1.9913 	   49.1860 	    6.0000 	   52.0000 	   57.3589 
    1.8387 	   49.2220 	    6.0000 	   52.0000 	   57.3949 
    2.0066 	   49.2630 	    6.0000 	   52.0000 	   57.4359 
    1.9455 	   49.3020 	    6.0000 	   52.0000 	   57.4749 
    2.0523 	   49.3380 	    6.0000 	   52.0000 	   57.5109 
    1.8997 	   49.3770 	    6.0000 	   52.0000 	   57.5499 
    1.9608 	   49.4150 	    6.0000 	   52.0000 	   57.5879 
    1.8997 	   49.4540 	    6.0000 	   52.0000 	   57.6269 
    1.9150 	   49.4930 	    6.0000 	   52.0000 	   57.6659 
    1.9760 	   49.5290 	    6.0000 	   52.0000 	   57.7019 
    1.7777 	   49.5680 	    6.0000 	   52.0000 	   57.7409 
    1.9760 	   49.6060 	    6.0000 	   52.0000 	   57.7789 
    1.9608 	   49.6450 	    6.0000 	   52.0000 	   57.8179 
    1.9608 	   49.6820 	    6.0000 	   52.0000 	   57.8549 
    1.8997 	   49.7220 	    6.0000 	   52.0000 	   57.8949 
    1.9760 	   49.7600 	    6.0000 	   52.0000 	   57.9329 
    1.9150 	   49.7970 	    6.0000 	   52.0000 	   57.9699 
    1.8845 	   49.8330 	    6.0000 	   52.0000 	   58.0059 
    1.9150 	   49.8700 	    6.0000 	   52.0000 	   58.0429 
    1.8845 	   49.9070 	    6.0000 	   52.0000 	   58.0799 
    1.8540 	   49.9420 	    6.0000 	   52.0000 	   58.1149 
    1.8997 	   49.9790 	    6.0000 	   52.0000 	   58.1519 
    1.9455 	   50.0140 	    6.0000 	   52.0000 	   58.1869 
    1.9303 	   50.0490 	    6.0000 	   52.0000 	   58.2219 
    1.5946 	   50.0900 	    6.0000 	   52.0000 	   58.2629 
    1.9150 	   50.1290 	    6.0000 	   52.0000 	   58.3019 
    1.9913 	   50.1650 	    6.0000 	   52.0000 	   58.3379 
    1.7624 	   50.2060 	    6.0000 	   52.0000 	   58.3789 
    1.8387 	   50.2450 	    6.0000 	   52.0000 	   58.4179 
    1.9150 	   50.2850 	    6.0000 	   52.0000 	   58.4579 
    1.9455 	   50.3250 	    6.0000 	   52.0000 	   58.4980 
    2.0829 	   50.3620 	    6.0000 	   52.0000 	   58.5350 
    2.0066 	   50.3990 	    6.0000 	   52.0000 	   58.5720 
    1.9913 	   50.4360 	    6.0000 	   52.0000 	   58.6090 
    1.8235 	   50.4730 	    6.0000 	   52.0000 	   58.6460 
    1.9913 	   50.5120 	    6.0000 	   52.0000 	   58.6850 
    2.0066 	   50.5510 	    6.0000 	   52.0000 	   58.7240 
    1.8387 	   50.5900 	    6.0000 	   52.0000 	   58.7630 
    1.7929 	   50.6290 	    6.0000 	   52.0000 	   58.8020 
    2.0371 	   50.6680 	    6.0000 	   52.0000 	   58.8410 
    1.8997 	   50.7060 	    6.0000 	   52.0000 	   58.8790 
    1.9150 	   50.7450 	    6.0000 	   52.0000 	   58.9180 
    1.8082 	   50.7860 	    6.0000 	   52.0000 	   58.9590 
    1.8845 	   50.8230 	    6.0000 	   52.0000 	   58.9960 
    1.9913 	   50.8590 	    6.0000 	   52.0000 	   59.0320 
    1.9150 	   50.8950 	    6.0000 	   52.0000 	   59.0680 
    1.8235 	   50.9330 	    6.0000 	   52.0000 	   59.1060 
    1.9760 	   50.9700 	    6.0000 	   52.0000 	   59.1430 
    2.0523 	   51.0080 	    6.0000 	   52.0000 	   59.1810 
    1.9455 	   51.0440 	    6.0000 	   52.0000 	   59.2170 
    2.0066 	   51.0820 	    6.0000 	   52.0000 	   59.2550 
    1.8845 	   51.1160 	    6.0000 	   52.0000 	   59.2890 
    1.8997 	   51.1520 	    6.0000 	   52.0000 	   59.3250 
    1.8387 	   51.1920 	    6.0000 	   52.0000 	   59.3650 
    1.8845 	   51.2310 	    6.0000 	   52.0000 	   59.4030 
    1.9608 	   51.2700 	    6.0000 	   52.0000 	   59.4430 
    2.0066 	   51.3060 	    6.0000 	   52.0000 	   59.4790 
    1.8387 	   51.3450 	    6.0000 	   52.0000 	   59.5180 
    1.8235 	   51.3840 	    6.0000 	   52.0000 	   59.5570 
    1.6709 	   51.4230 	    6.0000 	   52.0000 	   59.5960 
    1.9608 	   51.4630 	    6.0000 	   52.0000 	   59.6360 
    1.8997 	   51.5010 	    6.0000 	   52.0000 	   59.6740 
    1.8845 	   51.5410 	    6.0000 	   52.0000 	   59.7140 
    1.7777 	   51.5790 	    6.0000 	   52.0000 	   59.7520 
    1.8997 	   51.6180 	    6.0000 	   52.0000 	   59.7910 
    1.9455 	   51.6550 	    6.0000 	   52.0000 	   59.8280 
    2.0981 	   51.6920 	    6.0000 	   52.0000 	   59.8650 
    1.7929 	   51.7300 	    6.0000 	   52.0000 	   59.9030 
    1.9150 	   51.7680 	    6.0000 	   52.0000 	   59.9410 
    2.1592 	   51.8070 	    6.0000 	   52.0000 	   59.9800 
    1.7777 	   51.8440 	    6.0000 	   53.0000 	    0.0170 
    1.9760 	   51.8830 	    6.0000 	   53.0000 	    0.0560 
    1.6709 	   51.9210 	    6.0000 	   53.0000 	    0.0940 
    1.8845 	   51.9570 	    6.0000 	   53.0000 	    0.1300 
    1.9455 	   51.9920 	    6.0000 	   53.0000 	    0.1650 
    1.8692 	   52.0270 	    6.0000 	   53.0000 	    0.2000 
    1.9608 	   52.0600 	    6.0000 	   53.0000 	    0.2330 
    1.8235 	   52.0970 	    6.0000 	   53.0000 	    0.2701 
    1.7929 	   52.1320 	    6.0000 	   53.0000 	    0.3051 
    2.0371 	   52.1670 	    6.0000 	   53.0000 	    0.3401 
    1.8692 	   52.2050 	    6.0000 	   53.0000 	    0.3781 
    1.9150 	   52.2430 	    6.0000 	   53.0000 	    0.4161 
    1.9760 	   52.2830 	    6.0000 	   53.0000 	    0.4561 
    1.9455 	   52.3220 	    6.0000 	   53.0000 	    0.4951 
    1.9455 	   52.3610 	    6.0000 	   53.0000 	    0.5341 
    1.8387 	   52.4000 	    6.0000 	   53.0000 	    0.5731 
    1.7624 	   52.4380 	    6.0000 	   53.0000 	    0.6111 
    1.7777 	   52.4780 	    6.0000 	   53.0000 	    0.6511 
    1.8997 	   52.5170 	    6.0000 	   53.0000 	    0.6901 
    2.0829 	   52.5560 	    6.0000 	   53.0000 	    0.7291 
    2.0218 	   52.5940 	    6.0000 	   53.0000 	    0.7671 
    1.8540 	   52.6310 	    6.0000 	   53.0000 	    0.8041 
    1.7472 	   52.6680 	    6.0000 	   53.0000 	    0.8411 
    2.0981 	   52.7070 	    6.0000 	   53.0000 	    0.8801 
    1.9455 	   52.7450 	    6.0000 	   53.0000 	    0.9181 
    1.8387 	   52.7830 	    6.0000 	   53.0000 	    0.9561 
    1.8387 	   52.8200 	    6.0000 	   53.0000 	    0.9931 
    1.9150 	   52.8570 	    6.0000 	   53.0000 	    1.0301 
    1.8997 	   52.8940 	    6.0000 	   53.0000 	    1.0671 
    1.8692 	   52.9300 	    6.0000 	   53.0000 	    1.1031 
    1.6556 	   52.9640 	    6.0000 	   53.0000 	    1.1371 
    2.0066 	   53.0000 	    6.0000 	   53.0000 	    1.1731 
    1.9455 	   53.0360 	    6.0000 	   53.0000 	    1.2091 
    1.9303 	   53.0740 	    6.0000 	   53.0000 	    1.2471 
    1.8845 	   53.1070 	    6.0000 	   53.0000 	    1.2801 
    1.6403 	   53.1410 	    6.0000 	   53.0000 	    1.3141 
    1.8235 	   53.1750 	    6.0000 	   53.0000 	    1.3481 
    1.8692 	   53.2100 	    6.0000 	   53.0000 	    1.3831 
    2.0066 	   53.2470 	    6.0000 	   53.0000 	    1.4201 
    1.8997 	   53.2840 	    6.0000 	   53.0000 	    1.4571 
    2.0066 	   53.3220 	    6.0000 	   53.0000 	    1.4951 
    1.7319 	   53.3630 	    6.0000 	   53.0000 	    1.5361 
    1.7472 	   53.4000 	    6.0000 	   53.0000 	    1.5731 
    1.9303 	   53.4390 	    6.0000 	   53.0000 	    1.6121 
    1.9303 	   53.4780 	    6.0000 	   53.0000 	    1.6511 
    1.8997 	   53.5150 	    6.0000 	   53.0000 	    1.6881 
    1.9913 	   53.5530 	    6.0000 	   53.0000 	    1.7261 
    1.9608 	   53.5920 	    6.0000 	   53.0000 	    1.7651 
    1.9150 	   53.6300 	    6.0000 	   53.0000 	    1.8031 
    1.8692 	   53.6680 	    6.0000 	   53.0000 	    1.8411 
    1.8845 	   53.7080 	    6.0000 	   53.0000 	    1.8811 
    1.9303 	   53.7470 	    6.0000 	   53.0000 	    1.9201 
    1.8387 	   53.7850 	    6.0000 	   53.0000 	    1.9581 
    1.8997 	   53.8240 	    6.0000 	   53.0000 	    1.9972 
    1.9760 	   53.8610 	    6.0000 	   53.0000 	    2.0342 
    1.8997 	   53.8970 	    6.0000 	   53.0000 	    2.0702 
    1.8540 	   53.9330 	    6.0000 	   53.0000 	    2.1062 
    2.0066 	   53.9670 	    6.0000 	   53.0000 	    2.1402 
    1.9608 	   54.0040 	    6.0000 	   53.0000 	    2.1772 
    1.9608 	   54.0410 	    6.0000 	   53.0000 	    2.2142 
    1.8387 	   54.0780 	    6.0000 	   53.0000 	    2.2512 
    2.0523 	   54.1110 	    6.0000 	   53.0000 	    2.2842 
    2.0218 	   54.1460 	    6.0000 	   53.0000 	    2.3192 
    1.8845 	   54.1800 	    6.0000 	   53.0000 	    2.3532 
    1.8540 	   54.2160 	    6.0000 	   53.0000 	    2.3892 
    1.7166 	   54.2490 	    6.0000 	   53.0000 	    2.4222 
    1.8082 	   54.2870 	    6.0000 	   53.0000 	    2.4602 
    1.8082 	   54.3280 	    6.0000 	   53.0000 	    2.5012 
    1.7472 	   54.3650 	    6.0000 	   53.0000 	    2.5382 
    1.8845 	   54.4030 	    6.0000 	   53.0000 	    2.5762 
    2.0676 	   54.4400 	    6.0000 	   53.0000 	    2.6132 
    1.8997 	   54.4770 	    6.0000 	   53.0000 	    2.6502 
    2.0218 	   54.5160 	    6.0000 	   53.0000 	    2.6892 
    1.9303 	   54.5540 	    6.0000 	   53.0000 	    2.7272 
    1.9150 	   54.5930 	    6.0000 	   53.0000 	    2.7662 
    1.8997 	   54.6310 	    6.0000 	   53.0000 	    2.8042 
    1.9150 	   54.6680 	    6.0000 	   53.0000 	    2.8412 
    2.0218 	   54.7090 	    6.0000 	   53.0000 	    2.8822 
    1.8387 	   54.7470 	    6.0000 	   53.0000 	    2.9202 
    1.7166 	   54.7870 	    6.0000 	   53.0000 	    2.9602 
    1.8387 	   54.8260 	    6.0000 	   53.0000 	    2.9992 
    1.8997 	   54.8650 	    6.0000 	   53.0000 	    3.0382 
    1.8387 	   54.9020 	    6.0000 	   53.0000 	    3.0742 
    2.0218 	   54.9390 	    6.0000 	   53.0000 	    3.1122 
    1.8845 	   54.9750 	    6.0000 	   53.0000 	    3.1482 
    1.9913 	   55.0130 	    6.0000 	   53.0000 	    3.1862 
    1.9303 	   55.0490 	    6.0000 	   53.0000 	    3.2222 
    1.9150 	   55.0860 	    6.0000 	   53.0000 	    3.2592 
    2.0829 	   55.1210 	    6.0000 	   53.0000 	    3.2942 
    1.6403 	   55.1560 	    6.0000 	   53.0000 	    3.3292 
    1.6861 	   55.1920 	    6.0000 	   53.0000 	    3.3652 
    1.8540 	   55.2300 	    6.0000 	   53.0000 	    3.4032 
    1.8845 	   55.2710 	    6.0000 	   53.0000 	    3.4442 
    1.8845 	   55.3110 	    6.0000 	   53.0000 	    3.4842 
    1.8997 	   55.3490 	    6.0000 	   53.0000 	    3.5222 
    1.8540 	   55.3870 	    6.0000 	   53.0000 	    3.5602 
    1.5335 	   55.4260 	    6.0000 	   53.0000 	    3.5992 
    1.8692 	   55.4630 	    6.0000 	   53.0000 	    3.6362 
    1.9760 	   55.5000 	    6.0000 	   53.0000 	    3.6732 
    1.9455 	   55.5370 	    6.0000 	   53.0000 	    3.7102 
    1.8845 	   55.5770 	    6.0000 	   53.0000 	    3.7503 
    1.6556 	   55.6160 	    6.0000 	   53.0000 	    3.7893 
    1.8997 	   55.6540 	    6.0000 	   53.0000 	    3.8273 
    2.0218 	   55.6940 	    6.0000 	   53.0000 	    3.8673 
    1.8845 	   55.7340 	    6.0000 	   53.0000 	    3.9073 
    1.7929 	   55.7730 	    6.0000 	   53.0000 	    3.9463 
    1.9760 	   55.8130 	    6.0000 	   53.0000 	    3.9863 
    1.9303 	   55.8510 	    6.0000 	   53.0000 	    4.0243 
    2.0066 	   55.8880 	    6.0000 	   53.0000 	    4.0613 
    1.8845 	   55.9260 	    6.0000 	   53.0000 	    4.0993 
    1.8540 	   55.9630 	    6.0000 	   53.0000 	    4.1363 
    1.9608 	   55.9990 	    6.0000 	   53.0000 	    4.1723 
    1.8845 	   56.0350 	    6.0000 	   53.0000 	    4.2083 
    1.9303 	   56.0710 	    6.0000 	   53.0000 	    4.2443 
    1.9913 	   56.1100 	    6.0000 	   53.0000 	    4.2833 
    2.0676 	   56.1460 	    6.0000 	   53.0000 	    4.3193 
    1.7472 	   56.1830 	    6.0000 	   53.0000 	    4.3563 
    2.1286 	   56.2200 	    6.0000 	   53.0000 	    4.3933 
    1.9303 	   56.2590 	    6.0000 	   53.0000 	    4.4323 
    1.8997 	   56.2970 	    6.0000 	   53.0000 	    4.4703 
    1.8692 	   56.3360 	    6.0000 	   53.0000 	    4.5093 
    1.7929 	   56.3750 	    6.0000 	   53.0000 	    4.5483 
    1.9760 	   56.4140 	    6.0000 	   53.0000 	    4.5873 
    2.0676 	   56.4540 	    6.0000 	   53.0000 	    4.6273 
    1.8845 	   56.4940 	    6.0000 	   53.0000 	    4.6673 
    1.8692 	   56.5330 	    6.0000 	   53.0000 	    4.7063 
    2.0981 	   56.5730 	    6.0000 	   53.0000 	    4.7463 
    1.7014 	   56.6140 	    6.0000 	   53.0000 	    4.7873 
    1.9150 	   56.6530 	    6.0000 	   53.0000 	    4.8263 
    1.9303 	   56.6930 	    6.0000 	   53.0000 	    4.8663 
    2.0371 	   56.7340 	    6.0000 	   53.0000 	    4.9073 
    1.8540 	   56.7720 	    6.0000 	   53.0000 	    4.9443 
    1.9150 	   56.8110 	    6.0000 	   53.0000 	    4.9843 
    1.9913 	   56.8520 	    6.0000 	   53.0000 	    5.0253 
    1.9760 	   56.8880 	    6.0000 	   53.0000 	    5.0613 
    1.7472 	   56.9250 	    6.0000 	   53.0000 	    5.0983 
    2.0371 	   56.9620 	    6.0000 	   53.0000 	    5.1353 
    1.8082 	   56.9970 	    6.0000 	   53.0000 	    5.1703 
    1.8235 	   57.0330 	    6.0000 	   53.0000 	    5.2063 
    1.8845 	   57.0690 	    6.0000 	   53.0000 	    5.2423 
    2.0218 	   57.1050 	    6.0000 	   53.0000 	    5.2783 
    1.7929 	   57.1400 	    6.0000 	   53.0000 	    5.3133 
    1.9150 	   57.1760 	    6.0000 	   53.0000 	    5.3493 
    2.0218 	   57.2100 	    6.0000 	   53.0000 	    5.3833 
    1.9913 	   57.2470 	    6.0000 	   53.0000 	    5.4203 
    1.8082 	   57.2830 	    6.0000 	   53.0000 	    5.4563 
    1.9913 	   57.3190 	    6.0000 	   53.0000 	    5.4924 
    2.0218 	   57.3560 	    6.0000 	   53.0000 	    5.5294 
    1.8997 	   57.3960 	    6.0000 	   53.0000 	    5.5694 
    1.7472 	   57.4350 	    6.0000 	   53.0000 	    5.6084 
    1.8387 	   57.4720 	    6.0000 	   53.0000 	    5.6454 
    1.9608 	   57.5120 	    6.0000 	   53.0000 	    5.6854 
    1.9913 	   57.5510 	    6.0000 	   53.0000 	    5.7244 
    1.8845 	   57.5890 	    6.0000 	   53.0000 	    5.7624 
    1.8997 	   57.6290 	    6.0000 	   53.0000 	    5.8024 
    1.9608 	   57.6660 	    6.0000 	   53.0000 	    5.8394 
    1.8082 	   57.7040 	    6.0000 	   53.0000 	    5.8774 
    1.8387 	   57.7430 	    6.0000 	   53.0000 	    5.9164 
    1.9760 	   57.7800 	    6.0000 	   53.0000 	    5.9534 
    1.9455 	   57.8220 	    6.0000 	   53.0000 	    5.9954 
    2.0218 	   57.8600 	    6.0000 	   53.0000 	    6.0334 
    1.9150 	   57.8990 	    6.0000 	   53.0000 	    6.0724 
    1.8997 	   57.9370 	    6.0000 	   53.0000 	    6.1104 
    1.8235 	   57.9770 	    6.0000 	   53.0000 	    6.1504 
    2.0676 	   58.0160 	    6.0000 	   53.0000 	    6.1894 
    1.8845 	   58.0530 	    6.0000 	   53.0000 	    6.2264 
    1.9608 	   58.0910 	    6.0000 	   53.0000 	    6.2644 
    1.8845 	   58.1260 	    6.0000 	   53.0000 	    6.2994 
    1.8387 	   58.1600 	    6.0000 	   53.0000 	    6.3334 
    1.9150 	   58.1980 	    6.0000 	   53.0000 	    6.3714 
    1.7166 	   58.2350 	    6.0000 	   53.0000 	    6.4084 
    1.8540 	   58.2710 	    6.0000 	   53.0000 	    6.4444 
    1.8997 	   58.3090 	    6.0000 	   53.0000 	    6.4824 
    1.9455 	   58.3450 	    6.0000 	   53.0000 	    6.5184 
    1.8540 	   58.3800 	    6.0000 	   53.0000 	    6.5534 
    1.8845 	   58.4150 	    6.0000 	   53.0000 	    6.5884 
    1.8387 	   58.4500 	    6.0000 	   53.0000 	    6.6234 
    1.8997 	   58.4850 	    6.0000 	   53.0000 	    6.6584 
    1.9303 	   58.5220 	    6.0000 	   53.0000 	    6.6954 
    1.9760 	   58.5640 	    6.0000 	   53.0000 	    6.7374 
    1.9303 	   58.6020 	    6.0000 	   53.0000 	    6.7754 
    1.5793 	   58.6380 	    6.0000 	   53.0000 	    6.8114 
    1.9150 	   58.6790 	    6.0000 	   53.0000 	    6.8524 
    1.8692 	   58.7170 	    6.0000 	   53.0000 	    6.8904 
    1.8997 	   58.7550 	    6.0000 	   53.0000 	    6.9284 
    1.8692 	   58.7950 	    6.0000 	   53.0000 	    6.9684 
    1.9760 	   58.8320 	    6.0000 	   53.0000 	    7.0054 
    1.8997 	   58.8680 	    6.0000 	   53.0000 	    7.0414 
    2.0218 	   58.9060 	    6.0000 	   53.0000 	    7.0794 
    1.8692 	   58.9420 	    6.0000 	   53.0000 	    7.1154 
    1.9150 	   58.9810 	    6.0000 	   53.0000 	    7.1544 
    1.8692 	   59.0190 	    6.0000 	   53.0000 	    7.1924 
    1.9455 	   59.0570 	    6.0000 	   53.0000 	    7.2304 
    1.8387 	   59.0940 	    6.0000 	   53.0000 	    7.2675 
    1.9303 	   59.1320 	    6.0000 	   53.0000 	    7.3055 
    2.0218 	   59.1720 	    6.0000 	   53.0000 	    7.3455 
    1.8692 	   59.2130 	    6.0000 	   53.0000 	    7.3865 
    1.9760 	   59.2490 	    6.0000 	   53.0000 	    7.4225 
    1.8235 	   59.2880 	    6.0000 	   53.0000 	    7.4615 
    1.7929 	   59.3250 	    6.0000 	   53.0000 	    7.4985 
    2.0218 	   59.3610 	    6.0000 	   53.0000 	    7.5345 
    1.9913 	   59.3990 	    6.0000 	   53.0000 	    7.5725 
    1.8845 	   59.4360 	    6.0000 	   53.0000 	    7.6095 
    1.9608 	   59.4730 	    6.0000 	   53.0000 	    7.6465 
    1.9455 	   59.5130 	    6.0000 	   53.0000 	    7.6865 
    1.8692 	   59.5520 	    6.0000 	   53.0000 	    7.7255 
    1.9608 	   59.5890 	    6.0000 	   53.0000 	    7.7625 
    1.8540 	   59.6290 	    6.0000 	   53.0000 	    7.8025 
    1.7929 	   59.6680 	    6.0000 	   53.0000 	    7.8415 
    1.8235 	   59.7060 	    6.0000 	   53.0000 	    7.8795 
    2.0371 	   59.7470 	    6.0000 	   53.0000 	    7.9205 
    1.7929 	   59.7870 	    6.0000 	   53.0000 	    7.9605 
    1.8997 	   59.8270 	    6.0000 	   53.0000 	    8.0005 
    1.9913 	   59.8650 	    6.0000 	   53.0000 	    8.0385 
    1.8235 	   59.9030 	    6.0000 	   53.0000 	    8.0765 
    1.8997 	   59.9410 	    6.0000 	   53.0000 	    8.1145 
    2.0218 	   59.9760 	    6.0000 	   53.0000 	    8.1495 
    1.8540 	   60.0140 	    6.0000 	   53.0000 	    8.1875 
    1.9913 	   60.0500 	    6.0000 	   53.0000 	    8.2235 
    1.9913 	   60.0880 	    6.0000 	   53.0000 	    8.2615 
    1.7166 	   60.1220 	    6.0000 	   53.0000 	    8.2955 
    1.9150 	   60.1570 	    6.0000 	   53.0000 	    8.3305 
    1.8387 	   60.1950 	    6.0000 	   53.0000 	    8.3685 
    2.0066 	   60.2370 	    6.0000 	   53.0000 	    8.4105 
    1.8692 	   60.2770 	    6.0000 	   53.0000 	    8.4505 
    1.9150 	   60.3160 	    6.0000 	   53.0000 	    8.4895 
    1.9455 	   60.3550 	    6.0000 	   53.0000 	    8.5285 
    2.0676 	   60.3980 	    6.0000 	   53.0000 	    8.5715 
    1.8540 	   60.4380 	    6.0000 	   53.0000 	    8.6115 
    2.0066 	   60.4810 	    6.0000 	   53.0000 	    8.6545 
    1.9913 	   60.5210 	    6.0000 	   53.0000 	    8.6945 
    1.9608 	   60.5640 	    6.0000 	   53.0000 	    8.7375 
    1.7929 	   60.6050 	    6.0000 	   53.0000 	    8.7785 
    1.9150 	   60.6470 	    6.0000 	   53.0000 	    8.8205 
    2.0218 	   60.6870 	    6.0000 	   53.0000 	    8.8605 
    1.8997 	   60.7280 	    6.0000 	   53.0000 	    8.9015 
    1.8540 	   60.7700 	    6.0000 	   53.0000 	    8.9435 
    1.8540 	   60.8080 	    6.0000 	   53.0000 	    8.9816 
    2.0676 	   60.8470 	    6.0000 	   53.0000 	    9.0206 
    1.9150 	   60.8880 	    6.0000 	   53.0000 	    9.0616 
    1.8997 	   60.9260 	    6.0000 	   53.0000 	    9.0996 
    1.6861 	   60.9650 	    6.0000 	   53.0000 	    9.1386 
    1.9150 	   61.0030 	    6.0000 	   53.0000 	    9.1756 
    1.6403 	   61.0400 	    6.0000 	   53.0000 	    9.2126 
    1.7929 	   61.0780 	    6.0000 	   53.0000 	    9.2506 
    1.9608 	   61.1150 	    6.0000 	   53.0000 	    9.2876 
    1.6403 	   61.1530 	    6.0000 	   53.0000 	    9.3256 
    1.7929 	   61.1920 	    6.0000 	   53.0000 	    9.3646 
    1.9150 	   61.2320 	    6.0000 	   53.0000 	    9.4046 
    1.9608 	   61.2710 	    6.0000 	   53.0000 	    9.4436 
    1.9608 	   61.3090 	    6.0000 	   53.0000 	    9.4816 
    1.5183 	   61.3470 	    6.0000 	   53.0000 	    9.5196 
    1.9913 	   61.3880 	    6.0000 	   53.0000 	    9.5606 
    1.9150 	   61.4270 	    6.0000 	   53.0000 	    9.5996 
    1.9608 	   61.4650 	    6.0000 	   53.0000 	    9.6376 
    1.9303 	   61.5030 	    6.0000 	   53.0000 	    9.6756 
    1.7319 	   61.5400 	    6.0000 	   53.0000 	    9.7126 
    1.9913 	   61.5770 	    6.0000 	   53.0000 	    9.7496 
    1.8235 	   61.6150 	    6.0000 	   53.0000 	    9.7876 
    1.9303 	   61.6530 	    6.0000 	   53.0000 	    9.8256 
    1.8235 	   61.6900 	    6.0000 	   53.0000 	    9.8626 
    1.7624 	   61.7310 	    6.0000 	   53.0000 	    9.9036 
    2.0523 	   61.7710 	    6.0000 	   53.0000 	    9.9436 
    1.9455 	   61.8100 	    6.0000 	   53.0000 	    9.9826 
    2.0676 	   61.8480 	    6.0000 	   53.0000 	   10.0206 
    1.8387 	   61.8860 	    6.0000 	   53.0000 	   10.0586 
    1.7929 	   61.9230 	    6.0000 	   53.0000 	   10.0956 
    2.0676 	   61.9610 	    6.0000 	   53.0000 	   10.1336 
    1.8997 	   61.9990 	    6.0000 	   53.0000 	   10.1716 
    1.8997 	   62.0360 	    6.0000 	   53.0000 	   10.2086 
    1.9303 	   62.0730 	    6.0000 	   53.0000 	   10.2456 
    1.9150 	   62.1110 	    6.0000 	   53.0000 	   10.2836 
    1.7929 	   62.1460 	    6.0000 	   53.0000 	   10.3186 
    1.6861 	   62.1810 	    6.0000 	   53.0000 	   10.3536 
    1.9150 	   62.2160 	    6.0000 	   53.0000 	   10.3886 
    1.7472 	   62.2520 	    6.0000 	   53.0000 	   10.4246 
    1.8692 	   62.2870 	    6.0000 	   53.0000 	   10.4596 
    1.9608 	   62.3240 	    6.0000 	   53.0000 	   10.4966 
    1.7777 	   62.3600 	    6.0000 	   53.0000 	   10.5326 
    1.7777 	   62.3970 	    6.0000 	   53.0000 	   10.5696 
    1.9303 	   62.4330 	    6.0000 	   53.0000 	   10.6056 
    1.9760 	   62.4710 	    6.0000 	   53.0000 	   10.6436 
    1.7929 	   62.5160 	    6.0000 	   53.0000 	   10.6886 
    1.7014 	   62.5550 	    6.0000 	   53.0000 	   10.7276 
    2.0523 	   62.5980 	    6.0000 	   53.0000 	   10.7707 
    1.8082 	   62.6350 	    6.0000 	   53.0000 	   10.8077 
    1.8997 	   62.6710 	    6.0000 	   53.0000 	   10.8437 
    1.9303 	   62.7100 	    6.0000 	   53.0000 	   10.8827 
    1.7777 	   62.7480 	    6.0000 	   53.0000 	   10.9207 
    1.7624 	   62.7880 	    6.0000 	   53.0000 	   10.9607 
    1.8692 	   62.8280 	    6.0000 	   53.0000 	   11.0007 
    1.9608 	   62.8640 	    6.0000 	   53.0000 	   11.0367 
    1.8387 	   62.8990 	    6.0000 	   53.0000 	   11.0717 
    1.8540 	   62.9350 	    6.0000 	   53.0000 	   11.1077 
    2.1134 	   62.9720 	    6.0000 	   53.0000 	   11.1447 
    1.7472 	   63.0080 	    6.0000 	   53.0000 	   11.1807 
    1.6251 	   63.0470 	    6.0000 	   53.0000 	   11.2197 
    2.0676 	   63.0850 	    6.0000 	   53.0000 	   11.2577 
    1.9150 	   63.1200 	    6.0000 	   53.0000 	   11.2927 
    1.8540 	   63.1550 	    6.0000 	   53.0000 	   11.3277 
    1.7777 	   63.1910 	    6.0000 	   53.0000 	   11.3637 
    1.8082 	   63.2310 	    6.0000 	   53.0000 	   11.4037 
    1.8997 	   63.2700 	    6.0000 	   53.0000 	   11.4427 
    2.0523 	   63.3090 	    6.0000 	   53.0000 	   11.4817 
    1.9303 	   63.3500 	    6.0000 	   53.0000 	   11.5227 
    2.0371 	   63.3890 	    6.0000 	   53.0000 	   11.5617 
    2.1134 	   63.4310 	    6.0000 	   53.0000 	   11.6037 
    1.9303 	   63.4710 	    6.0000 	   53.0000 	   11.6437 
    1.6098 	   63.5110 	    6.0000 	   53.0000 	   11.6837 
    1.9303 	   63.5510 	    6.0000 	   53.0000 	   11.7237 
    1.8692 	   63.5900 	    6.0000 	   53.0000 	   11.7627 
    1.8540 	   63.6300 	    6.0000 	   53.0000 	   11.8027 
    2.0676 	   63.6680 	    6.0000 	   53.0000 	   11.8407 
    1.8387 	   63.7040 	    6.0000 	   53.0000 	   11.8767 
    1.9608 	   63.7400 	    6.0000 	   53.0000 	   11.9127 
    1.9760 	   63.7770 	    6.0000 	   53.0000 	   11.9497 
    1.9150 	   63.8140 	    6.0000 	   53.0000 	   11.9867 
    2.0829 	   63.8500 	    6.0000 	   53.0000 	   12.0227 
    1.9760 	   63.8880 	    6.0000 	   53.0000 	   12.0607 
    2.0981 	   63.9250 	    6.0000 	   53.0000 	   12.0977 
    1.8540 	   63.9640 	    6.0000 	   53.0000 	   12.1367 
    1.6403 	   64.0030 	    6.0000 	   53.0000 	   12.1757 
    1.9913 	   64.0430 	    6.0000 	   53.0000 	   12.2157 
    1.9913 	   64.0830 	    6.0000 	   53.0000 	   12.2557 
    1.8540 	   64.1200 	    6.0000 	   53.0000 	   12.2927 
    1.8235 	   64.1560 	    6.0000 	   53.0000 	   12.3287 
    2.0676 	   64.1940 	    6.0000 	   53.0000 	   12.3667 
    1.8235 	   64.2340 	    6.0000 	   53.0000 	   12.4067 
    1.8692 	   64.2730 	    6.0000 	   53.0000 	   12.4457 
    1.8387 	   64.3150 	    6.0000 	   53.0000 	   12.4878 
    2.0066 	   64.3580 	    6.0000 	   53.0000 	   12.5308 
    2.1134 	   64.3990 	    6.0000 	   53.0000 	   12.5718 
    1.9303 	   64.4400 	    6.0000 	   53.0000 	   12.6128 
    1.9760 	   64.4800 	    6.0000 	   53.0000 	   12.6528 
    2.0371 	   64.5220 	    6.0000 	   53.0000 	   12.6948 
    1.8997 	   64.5620 	    6.0000 	   53.0000 	   12.7348 
    1.9455 	   64.6000 	    6.0000 	   53.0000 	   12.7728 
    1.9150 	   64.6410 	    6.0000 	   53.0000 	   12.8138 
    1.9150 	   64.6800 	    6.0000 	   53.0000 	   12.8528 
    1.9150 	   64.7170 	    6.0000 	   53.0000 	   12.8898 
    1.8997 	   64.7570 	    6.0000 	   53.0000 	   12.9298 
    1.9913 	   64.7970 	    6.0000 	   53.0000 	   12.9698 
    1.8845 	   64.8370 	    6.0000 	   53.0000 	   13.0098 
    1.7166 	   64.8760 	    6.0000 	   53.0000 	   13.0488 
    2.0981 	   64.9150 	    6.0000 	   53.0000 	   13.0878 
    1.8387 	   64.9530 	    6.0000 	   53.0000 	   13.1258 
    1.8692 	   64.9900 	    6.0000 	   53.0000 	   13.1628 
    2.0829 	   65.0270 	    6.0000 	   53.0000 	   13.1998 
    1.8540 	   65.0640 	    6.0000 	   53.0000 	   13.2368 
    2.0981 	   65.1010 	    6.0000 	   53.0000 	   13.2738 
    2.0523 	   65.1360 	    6.0000 	   53.0000 	   13.3088 
    1.8997 	   65.1710 	    6.0000 	   53.0000 	   13.3438 
    1.8997 	   65.2070 	    6.0000 	   53.0000 	   13.3798 
    1.8997 	   65.2430 	    6.0000 	   53.0000 	   13.4158 
    1.8082 	   65.2800 	    6.0000 	   53.0000 	   13.4528 
    1.9150 	   65.3170 	    6.0000 	   53.0000 	   13.4898 
    2.0829 	   65.3520 	    6.0000 	   53.0000 	   13.5248 
    1.8082 	   65.3880 	    6.0000 	   53.0000 	   13.5608 
    1.7777 	   65.4280 	    6.0000 	   53.0000 	   13.6008 
    2.0829 	   65.4680 	    6.0000 	   53.0000 	   13.6408 
    1.9303 	   65.5070 	    6.0000 	   53.0000 	   13.6798 
    1.9608 	   65.5480 	    6.0000 	   53.0000 	   13.7208 
    1.8540 	   65.5880 	    6.0000 	   53.0000 	   13.7608 
    1.9608 	   65.6290 	    6.0000 	   53.0000 	   13.8018 
    1.8692 	   65.6680 	    6.0000 	   53.0000 	   13.8408 
    1.9150 	   65.7090 	    6.0000 	   53.0000 	   13.8818 
    1.8540 	   65.7490 	    6.0000 	   53.0000 	   13.9218 
    1.8692 	   65.7890 	    6.0000 	   53.0000 	   13.9618 
    1.8692 	   65.8270 	    6.0000 	   53.0000 	   13.9998 
    1.8540 	   65.8650 	    6.0000 	   53.0000 	   14.0378 
    1.8692 	   65.9030 	    6.0000 	   53.0000 	   14.0758 
    1.8387 	   65.9400 	    6.0000 	   53.0000 	   14.1128 
    1.8235 	   65.9780 	    6.0000 	   53.0000 	   14.1508 
    1.5640 	   66.0160 	    6.0000 	   53.0000 	   14.1888 
    1.9150 	   66.0540 	    6.0000 	   53.0000 	   14.2268 
    1.9150 	   66.0930 	    6.0000 	   53.0000 	   14.2659 
    1.8540 	   66.1290 	    6.0000 	   53.0000 	   14.3019 
    2.0066 	   66.1650 	    6.0000 	   53.0000 	   14.3379 
    1.7929 	   66.2020 	    6.0000 	   53.0000 	   14.3749 
    1.8997 	   66.2420 	    6.0000 	   53.0000 	   14.4149 
    1.9303 	   66.2830 	    6.0000 	   53.0000 	   14.4559 
    1.9760 	   66.3220 	    6.0000 	   53.0000 	   14.4949 
    1.9303 	   66.3640 	    6.0000 	   53.0000 	   14.5369 
    1.8387 	   66.4050 	    6.0000 	   53.0000 	   14.5779 
    1.9150 	   66.4440 	    6.0000 	   53.0000 	   14.6169 
    1.8235 	   66.4860 	    6.0000 	   53.0000 	   14.6589 
    1.7777 	   66.5260 	    6.0000 	   53.0000 	   14.6989 
    1.6861 	   66.5670 	    6.0000 	   53.0000 	   14.7399 
    1.9608 	   66.6060 	    6.0000 	   53.0000 	   14.7789 
    1.8997 	   66.6480 	    6.0000 	   53.0000 	   14.8209 
    1.9455 	   66.6870 	    6.0000 	   53.0000 	   14.8599 
    1.8997 	   66.7270 	    6.0000 	   53.0000 	   14.8999 
    1.9455 	   66.7680 	    6.0000 	   53.0000 	   14.9409 
    1.8235 	   66.8090 	    6.0000 	   53.0000 	   14.9819 
    1.5640 	   66.8490 	    6.0000 	   53.0000 	   15.0219 
    1.9608 	   66.8890 	    6.0000 	   53.0000 	   15.0619 
    1.8387 	   66.9320 	    6.0000 	   53.0000 	   15.1049 
    1.9760 	   66.9700 	    6.0000 	   53.0000 	   15.1429 
    1.8997 	   67.0090 	    6.0000 	   53.0000 	   15.1819 
    1.9913 	   67.0480 	    6.0000 	   53.0000 	   15.2209 
    1.8540 	   67.0880 	    6.0000 	   53.0000 	   15.2609 
    1.5030 	   67.1260 	    6.0000 	   53.0000 	   15.2989 
    1.8235 	   67.1630 	    6.0000 	   53.0000 	   15.3359 
    1.9150 	   67.1990 	    6.0000 	   53.0000 	   15.3719 
    2.0066 	   67.2360 	    6.0000 	   53.0000 	   15.4089 
    1.8387 	   67.2760 	    6.0000 	   53.0000 	   15.4489 
    2.0676 	   67.3150 	    6.0000 	   53.0000 	   15.4879 
    1.8387 	   67.3550 	    6.0000 	   53.0000 	   15.5279 
    1.6861 	   67.3970 	    6.0000 	   53.0000 	   15.5699 
    1.9913 	   67.4370 	    6.0000 	   53.0000 	   15.6099 
    1.8692 	   67.4760 	    6.0000 	   53.0000 	   15.6489 
    1.8540 	   67.5200 	    6.0000 	   53.0000 	   15.6929 
    1.9455 	   67.5600 	    6.0000 	   53.0000 	   15.7329 
    1.8692 	   67.6020 	    6.0000 	   53.0000 	   15.7749 
    2.0218 	   67.6420 	    6.0000 	   53.0000 	   15.8149 
    1.7929 	   67.6810 	    6.0000 	   53.0000 	   15.8539 
    1.9760 	   67.7220 	    6.0000 	   53.0000 	   15.8949 
    1.8387 	   67.7630 	    6.0000 	   53.0000 	   15.9359 
    1.8997 	   67.8030 	    6.0000 	   53.0000 	   15.9760 
    1.9913 	   67.8450 	    6.0000 	   53.0000 	   16.0180 
    1.9760 	   67.8880 	    6.0000 	   53.0000 	   16.0610 
    1.8540 	   67.9280 	    6.0000 	   53.0000 	   16.1010 
    1.8387 	   67.9680 	    6.0000 	   53.0000 	   16.1410 
    1.7777 	   68.0070 	    6.0000 	   53.0000 	   16.1800 
    1.9455 	   68.0440 	    6.0000 	   53.0000 	   16.2170 
    1.6403 	   68.0850 	    6.0000 	   53.0000 	   16.2580 
    1.8997 	   68.1220 	    6.0000 	   53.0000 	   16.2950 
    1.9913 	   68.1580 	    6.0000 	   53.0000 	   16.3310 
    1.5946 	   68.1960 	    6.0000 	   53.0000 	   16.3690 
    1.8387 	   68.2360 	    6.0000 	   53.0000 	   16.4090 
    1.9455 	   68.2760 	    6.0000 	   53.0000 	   16.4490 
    1.8845 	   68.3190 	    6.0000 	   53.0000 	   16.4920 
    1.9760 	   68.3590 	    6.0000 	   53.0000 	   16.5320 
    1.8997 	   68.4030 	    6.0000 	   53.0000 	   16.5760 
    1.8845 	   68.4430 	    6.0000 	   53.0000 	   16.6160 
    1.8997 	   68.4860 	    6.0000 	   53.0000 	   16.6590 
    1.8845 	   68.5310 	    6.0000 	   53.0000 	   16.7040 
    2.0676 	   68.5730 	    6.0000 	   53.0000 	   16.7460 
    1.8692 	   68.6130 	    6.0000 	   53.0000 	   16.7860 
    1.8845 	   68.6550 	    6.0000 	   53.0000 	   16.8280 
    1.9150 	   68.6960 	    6.0000 	   53.0000 	   16.8690 
    2.0371 	   68.7360 	    6.0000 	   53.0000 	   16.9090 
    1.9608 	   68.7790 	    6.0000 	   53.0000 	   16.9520 
    1.8845 	   68.8210 	    6.0000 	   53.0000 	   16.9940 
    1.7624 	   68.8640 	    6.0000 	   53.0000 	   17.0370 
    1.9608 	   68.9040 	    6.0000 	   53.0000 	   17.0770 
    1.7929 	   68.9440 	    6.0000 	   53.0000 	   17.1170 
    1.8235 	   68.9840 	    6.0000 	   53.0000 	   17.1570 
    1.8997 	   69.0230 	    6.0000 	   53.0000 	   17.1960 
    1.8387 	   69.0600 	    6.0000 	   53.0000 	   17.2330 
    1.8845 	   69.0970 	    6.0000 	   53.0000 	   17.2700 
    1.8997 	   69.1350 	    6.0000 	   53.0000 	   17.3080 
    1.7929 	   69.1700 	    6.0000 	   53.0000 	   17.3430 
    1.7929 	   69.2070 	    6.0000 	   53.0000 	   17.3800 
    1.8235 	   69.2440 	    6.0000 	   53.0000 	   17.4170 
    1.9303 	   69.2820 	    6.0000 	   53.0000 	   17.4550 
    1.7929 	   69.3210 	    6.0000 	   53.0000 	   17.4940 
    1.9760 	   69.3630 	    6.0000 	   53.0000 	   17.5360 
    1.8387 	   69.4050 	    6.0000 	   53.0000 	   17.5780 
    1.9303 	   69.4460 	    6.0000 	   53.0000 	   17.6190 
    1.8387 	   69.4880 	    6.0000 	   53.0000 	   17.6610 
    1.8082 	   69.5330 	    6.0000 	   53.0000 	   17.7060 
    1.9303 	   69.5750 	    6.0000 	   53.0000 	   17.7481 
    1.9608 	   69.6170 	    6.0000 	   53.0000 	   17.7901 
    2.0066 	   69.6570 	    6.0000 	   53.0000 	   17.8301 
    1.9150 	   69.6980 	    6.0000 	   53.0000 	   17.8711 
    1.8692 	   69.7390 	    6.0000 	   53.0000 	   17.9121 
    1.5793 	   69.7830 	    6.0000 	   53.0000 	   17.9561 
    1.9455 	   69.8250 	    6.0000 	   53.0000 	   17.9981 
    1.8692 	   69.8670 	    6.0000 	   53.0000 	   18.0401 
    1.9455 	   69.9080 	    6.0000 	   53.0000 	   18.0811 
    1.8540 	   69.9470 	    6.0000 	   53.0000 	   18.1201 
    1.7624 	   69.9870 	    6.0000 	   53.0000 	   18.1601 
    1.7624 	   70.0240 	    6.0000 	   53.0000 	   18.1971 
    1.8082 	   70.0620 	    6.0000 	   53.0000 	   18.2351 
    1.6556 	   70.1040 	    6.0000 	   53.0000 	   18.2771 
    1.8540 	   70.1410 	    6.0000 	   53.0000 	   18.3141 
    1.8997 	   70.1770 	    6.0000 	   53.0000 	   18.3501 
    1.9913 	   70.2130 	    6.0000 	   53.0000 	   18.3861 
    1.7777 	   70.2520 	    6.0000 	   53.0000 	   18.4251 
    1.8387 	   70.2900 	    6.0000 	   53.0000 	   18.4631 
    1.9913 	   70.3310 	    6.0000 	   53.0000 	   18.5041 
    1.9455 	   70.3710 	    6.0000 	   53.0000 	   18.5441 
    2.0066 	   70.4100 	    6.0000 	   53.0000 	   18.5831 
    1.8387 	   70.4530 	    6.0000 	   53.0000 	   18.6261 
    1.9303 	   70.4940 	    6.0000 	   53.0000 	   18.6671 
    1.8845 	   70.5360 	    6.0000 	   53.0000 	   18.7091 
    1.9303 	   70.5800 	    6.0000 	   53.0000 	   18.7531 
    1.8845 	   70.6220 	    6.0000 	   53.0000 	   18.7951 
    1.9303 	   70.6630 	    6.0000 	   53.0000 	   18.8361 
    1.7929 	   70.7050 	    6.0000 	   53.0000 	   18.8781 
    1.7929 	   70.7490 	    6.0000 	   53.0000 	   18.9221 
    1.8387 	   70.7890 	    6.0000 	   53.0000 	   18.9621 
    2.1134 	   70.8300 	    6.0000 	   53.0000 	   19.0031 
    1.8540 	   70.8680 	    6.0000 	   53.0000 	   19.0411 
    1.8540 	   70.9110 	    6.0000 	   53.0000 	   19.0841 
    1.8845 	   70.9500 	    6.0000 	   53.0000 	   19.1231 
    1.8845 	   70.9860 	    6.0000 	   53.0000 	   19.1591 
    1.9760 	   71.0240 	    6.0000 	   53.0000 	   19.1971 
    1.8540 	   71.0640 	    6.0000 	   53.0000 	   19.2371 
    1.7166 	   71.1010 	    6.0000 	   53.0000 	   19.2741 
    1.8845 	   71.1390 	    6.0000 	   53.0000 	   19.3121 
    1.8845 	   71.1760 	    6.0000 	   53.0000 	   19.3491 
    1.9455 	   71.2120 	    6.0000 	   53.0000 	   19.3851 
    1.8235 	   71.2500 	    6.0000 	   53.0000 	   19.4231 
    1.8692 	   71.2880 	    6.0000 	   53.0000 	   19.4611 
    1.9303 	   71.3260 	    6.0000 	   53.0000 	   19.4992 
    1.8540 	   71.3630 	    6.0000 	   53.0000 	   19.5362 
    1.7777 	   71.4020 	    6.0000 	   53.0000 	   19.5752 
    1.9760 	   71.4410 	    6.0000 	   53.0000 	   19.6142 
    1.9303 	   71.4770 	    6.0000 	   53.0000 	   19.6502 
    1.9913 	   71.5140 	    6.0000 	   53.0000 	   19.6872 
    2.0066 	   71.5520 	    6.0000 	   53.0000 	   19.7252 
    1.9913 	   71.5910 	    6.0000 	   53.0000 	   19.7642 
    1.9760 	   71.6340 	    6.0000 	   53.0000 	   19.8072 
    1.8997 	   71.6750 	    6.0000 	   53.0000 	   19.8482 
    1.9913 	   71.7170 	    6.0000 	   53.0000 	   19.8902 
    2.0218 	   71.7590 	    6.0000 	   53.0000 	   19.9322 
    1.7929 	   71.8020 	    6.0000 	   53.0000 	   19.9752 
    1.9913 	   71.8410 	    6.0000 	   53.0000 	   20.0142 
    1.6556 	   71.8860 	    6.0000 	   53.0000 	   20.0592 
    1.9608 	   71.9250 	    6.0000 	   53.0000 	   20.0972 
    2.1439 	   71.9640 	    6.0000 	   53.0000 	   20.1372 
    1.8692 	   72.0040 	    6.0000 	   53.0000 	   20.1772 
    1.8540 	   72.0470 	    6.0000 	   53.0000 	   20.2202 
    1.8692 	   72.0930 	    6.0000 	   53.0000 	   20.2662 
    1.8692 	   72.1320 	    6.0000 	   53.0000 	   20.3052 
    1.8845 	   72.1710 	    6.0000 	   53.0000 	   20.3442 
    1.5488 	   72.2090 	    6.0000 	   53.0000 	   20.3822 
    1.8845 	   72.2460 	    6.0000 	   53.0000 	   20.4192 
    1.7929 	   72.2840 	    6.0000 	   53.0000 	   20.4572 
    1.9455 	   72.3220 	    6.0000 	   53.0000 	   20.4952 
    1.8845 	   72.3610 	    6.0000 	   53.0000 	   20.5342 
    1.9303 	   72.4000 	    6.0000 	   53.0000 	   20.5732 
    1.9455 	   72.4370 	    6.0000 	   53.0000 	   20.6102 
    1.7014 	   72.4760 	    6.0000 	   53.0000 	   20.6492 
    1.8845 	   72.5130 	    6.0000 	   53.0000 	   20.6862 
    1.9303 	   72.5550 	    6.0000 	   53.0000 	   20.7282 
    1.8540 	   72.5980 	    6.0000 	   53.0000 	   20.7712 
    1.9455 	   72.6390 	    6.0000 	   53.0000 	   20.8122 
    1.8997 	   72.6810 	    6.0000 	   53.0000 	   20.8542 
    1.8997 	   72.7210 	    6.0000 	   53.0000 	   20.8942 
    1.9760 	   72.7630 	    6.0000 	   53.0000 	   20.9362 
    1.8845 	   72.8040 	    6.0000 	   53.0000 	   20.9772 
    1.8235 	   72.8450 	    6.0000 	   53.0000 	   21.0182 
    1.9303 	   72.8870 	    6.0000 	   53.0000 	   21.0602 
    2.0066 	   72.9310 	    6.0000 	   53.0000 	   21.1042 
    1.8540 	   72.9710 	    6.0000 	   53.0000 	   21.1442 
    1.9608 	   73.0130 	    6.0000 	   53.0000 	   21.1862 
    1.9150 	   73.0530 	    6.0000 	   53.0000 	   21.2262 
    1.8540 	   73.0920 	    6.0000 	   53.0000 	   21.2653 
    1.7777 	   73.1300 	    6.0000 	   53.0000 	   21.3033 
    1.8845 	   73.1680 	    6.0000 	   53.0000 	   21.3413 
    1.8997 	   73.2060 	    6.0000 	   53.0000 	   21.3793 
    1.9455 	   73.2430 	    6.0000 	   53.0000 	   21.4163 
    1.9455 	   73.2800 	    6.0000 	   53.0000 	   21.4533 
    1.7166 	   73.3180 	    6.0000 	   53.0000 	   21.4913 
    2.0066 	   73.3550 	    6.0000 	   53.0000 	   21.5283 
    1.9303 	   73.3930 	    6.0000 	   53.0000 	   21.5663 
    1.8387 	   73.4310 	    6.0000 	   53.0000 	   21.6043 
    1.7624 	   73.4720 	    6.0000 	   53.0000 	   21.6453 
    1.8540 	   73.5090 	    6.0000 	   53.0000 	   21.6823 
    1.4878 	   73.5470 	    6.0000 	   53.0000 	   21.7203 
    1.6861 	   73.5850 	    6.0000 	   53.0000 	   21.7583 
    1.9608 	   73.6230 	    6.0000 	   53.0000 	   21.7963 
    1.8997 	   73.6600 	    6.0000 	   53.0000 	   21.8333 
    1.9608 	   73.6980 	    6.0000 	   53.0000 	   21.8713 
    1.9760 	   73.7370 	    6.0000 	   53.0000 	   21.9103 
    1.6861 	   73.7740 	    6.0000 	   53.0000 	   21.9473 
    1.9150 	   73.8120 	    6.0000 	   53.0000 	   21.9853 
    1.9760 	   73.8490 	    6.0000 	   53.0000 	   22.0223 
    1.9150 	   73.8870 	    6.0000 	   53.0000 	   22.0603 
    1.8540 	   73.9270 	    6.0000 	   53.0000 	   22.1003 
    1.7777 	   73.9690 	    6.0000 	   53.0000 	   22.1423 
    1.8845 	   74.0110 	    6.0000 	   53.0000 	   22.1843 
    1.8540 	   74.0520 	    6.0000 	   53.0000 	   22.2253 
    1.8692 	   74.0970 	    6.0000 	   53.0000 	   22.2703 
    1.8082 	   74.1370 	    6.0000 	   53.0000 	   22.3103 
    1.8845 	   74.1770 	    6.0000 	   53.0000 	   22.3503 
    1.8387 	   74.2150 	    6.0000 	   53.0000 	   22.3883 
    1.8845 	   74.2540 	    6.0000 	   53.0000 	   22.4273 
    1.9150 	   74.2940 	    6.0000 	   53.0000 	   22.4673 
    1.7624 	   74.3320 	    6.0000 	   53.0000 	   22.5053 
    1.8997 	   74.3690 	    6.0000 	   53.0000 	   22.5423 
    1.8692 	   74.4060 	    6.0000 	   53.0000 	   22.5793 
    1.7777 	   74.4480 	    6.0000 	   53.0000 	   22.6213 
    1.9150 	   74.4900 	    6.0000 	   53.0000 	   22.6633 
    1.6556 	   74.5320 	    6.0000 	   53.0000 	   22.7053 
    1.8540 	   74.5750 	    6.0000 	   53.0000 	   22.7483 
    1.9150 	   74.6180 	    6.0000 	   53.0000 	   22.7913 
    1.8082 	   74.6570 	    6.0000 	   53.0000 	   22.8303 
    1.8235 	   74.7000 	    6.0000 	   53.0000 	   22.8733 
    1.7777 	   74.7420 	    6.0000 	   53.0000 	   22.9153 
    2.0981 	   74.7840 	    6.0000 	   53.0000 	   22.9573 
    2.0523 	   74.8270 	    6.0000 	   53.0000 	   23.0004 
    1.8997 	   74.8670 	    6.0000 	   53.0000 	   23.0404 
    1.9455 	   74.9090 	    6.0000 	   53.0000 	   23.0824 
    1.8540 	   74.9530 	    6.0000 	   53.0000 	   23.1264 
    1.7929 	   74.9930 	    6.0000 	   53.0000 	   23.1664 
    1.8692 	   75.0340 	    6.0000 	   53.0000 	   23.2074 
    1.8387 	   75.0740 	    6.0000 	   53.0000 	   23.2474 
    1.8997 	   75.1150 	    6.0000 	   53.0000 	   23.2884 
    1.8387 	   75.1550 	    6.0000 	   53.0000 	   23.3284 
    1.8692 	   75.1960 	    6.0000 	   53.0000 	   23.3694 
    1.8997 	   75.2340 	    6.0000 	   53.0000 	   23.4074 
    1.9913 	   75.2730 	    6.0000 	   53.0000 	   23.4464 
    1.9150 	   75.3120 	    6.0000 	   53.0000 	   23.4854 
    1.9150 	   75.3500 	    6.0000 	   53.0000 	   23.5234 
    1.9455 	   75.3880 	    6.0000 	   53.0000 	   23.5614 
    1.8082 	   75.4260 	    6.0000 	   53.0000 	   23.5994 
    1.6556 	   75.4640 	    6.0000 	   53.0000 	   23.6374 
    1.8997 	   75.5030 	    6.0000 	   53.0000 	   23.6764 
    1.9150 	   75.5410 	    6.0000 	   53.0000 	   23.7144 
    1.8845 	   75.5790 	    6.0000 	   53.0000 	   23.7524 
    1.8387 	   75.6200 	    6.0000 	   53.0000 	   23.7934 
    1.8692 	   75.6610 	    6.0000 	   53.0000 	   23.8344 
    1.8540 	   75.7040 	    6.0000 	   53.0000 	   23.8774 
    1.8692 	   75.7440 	    6.0000 	   53.0000 	   23.9174 
    1.9303 	   75.7840 	    6.0000 	   53.0000 	   23.9574 
    1.8235 	   75.8220 	    6.0000 	   53.0000 	   23.9954 
    1.8845 	   75.8600 	    6.0000 	   53.0000 	   24.0334 
    1.7014 	   75.8980 	    6.0000 	   53.0000 	   24.0714 
    1.9303 	   75.9380 	    6.0000 	   53.0000 	   24.1114 
    1.8082 	   75.9750 	    6.0000 	   53.0000 	   24.1484 
    1.9455 	   76.0130 	    6.0000 	   53.0000 	   24.1864 
    2.0218 	   76.0540 	    6.0000 	   53.0000 	   24.2274 
    1.8845 	   76.0950 	    6.0000 	   53.0000 	   24.2674 
    1.8082 	   76.1330 	    6.0000 	   53.0000 	   24.3064 
    1.8235 	   76.1720 	    6.0000 	   53.0000 	   24.3454 
    1.9150 	   76.2130 	    6.0000 	   53.0000 	   24.3864 
    1.7777 	   76.2500 	    6.0000 	   53.0000 	   24.4234 
    1.9303 	   76.2910 	    6.0000 	   53.0000 	   24.4644 
    1.8082 	   76.3290 	    6.0000 	   53.0000 	   24.5024 
    1.8997 	   76.3680 	    6.0000 	   53.0000 	   24.5414 
    1.8082 	   76.4110 	    6.0000 	   53.0000 	   24.5844 
    1.7166 	   76.4520 	    6.0000 	   53.0000 	   24.6254 
    1.7166 	   76.4960 	    6.0000 	   53.0000 	   24.6694 
    1.7929 	   76.5400 	    6.0000 	   53.0000 	   24.7134 
    1.8540 	   76.5780 	    6.0000 	   53.0000 	   24.7515 
    1.9455 	   76.6160 	    6.0000 	   53.0000 	   24.7895 
    1.9760 	   76.6550 	    6.0000 	   53.0000 	   24.8285 
    1.8997 	   76.6930 	    6.0000 	   53.0000 	   24.8665 
    1.9303 	   76.7320 	    6.0000 	   53.0000 	   24.9055 
    1.7929 	   76.7700 	    6.0000 	   53.0000 	   24.9435 
    2.0066 	   76.8080 	    6.0000 	   53.0000 	   24.9815 
    2.0676 	   76.8460 	    6.0000 	   53.0000 	   25.0195 
    1.8692 	   76.8840 	    6.0000 	   53.0000 	   25.0575 
    1.9760 	   76.9230 	    6.0000 	   53.0000 	   25.0965 
    1.8387 	   76.9600 	    6.0000 	   53.0000 	   25.1335 
    1.7929 	   76.9970 	    6.0000 	   53.0000 	   25.1705 
    1.9303 	   77.0350 	    6.0000 	   53.0000 	   25.2085 
    1.9303 	   77.0740 	    6.0000 	   53.0000 	   25.2475 
    1.7777 	   77.1120 	    6.0000 	   53.0000 	   25.2855 
    1.8235 	   77.1490 	    6.0000 	   53.0000 	   25.3225 
    1.9608 	   77.1880 	    6.0000 	   53.0000 	   25.3615 
    1.9303 	   77.2250 	    6.0000 	   53.0000 	   25.3985 
    1.8540 	   77.2630 	    6.0000 	   53.0000 	   25.4365 
    1.8692 	   77.3000 	    6.0000 	   53.0000 	   25.4735 
    1.9760 	   77.3390 	    6.0000 	   53.0000 	   25.5125 
    2.0218 	   77.3800 	    6.0000 	   53.0000 	   25.5535 
    1.8387 	   77.4240 	    6.0000 	   53.0000 	   25.5975 
    1.9608 	   77.4660 	    6.0000 	   53.0000 	   25.6395 
    1.8997 	   77.5100 	    6.0000 	   53.0000 	   25.6835 
    1.8082 	   77.5550 	    6.0000 	   53.0000 	   25.7285 
    1.7014 	   77.5930 	    6.0000 	   53.0000 	   25.7665 
    1.9608 	   77.6310 	    6.0000 	   53.0000 	   25.8045 
    1.9913 	   77.6690 	    6.0000 	   53.0000 	   25.8425 
    1.8387 	   77.7070 	    6.0000 	   53.0000 	   25.8805 
    1.8082 	   77.7460 	    6.0000 	   53.0000 	   25.9195 
    1.5640 	   77.7840 	    6.0000 	   53.0000 	   25.9575 
    1.8387 	   77.8220 	    6.0000 	   53.0000 	   25.9955 
    1.7624 	   77.8600 	    6.0000 	   53.0000 	   26.0335 
    1.9455 	   77.8980 	    6.0000 	   53.0000 	   26.0715 
    2.0676 	   77.9370 	    6.0000 	   53.0000 	   26.1105 
    1.8692 	   77.9760 	    6.0000 	   53.0000 	   26.1495 
    1.8845 	   78.0150 	    6.0000 	   53.0000 	   26.1885 
    1.8540 	   78.0560 	    6.0000 	   53.0000 	   26.2295 
    1.9150 	   78.0990 	    6.0000 	   53.0000 	   26.2725 
    1.8235 	   78.1370 	    6.0000 	   53.0000 	   26.3105 
    1.9455 	   78.1790 	    6.0000 	   53.0000 	   26.3525 
    1.8540 	   78.2180 	    6.0000 	   53.0000 	   26.3915 
    1.8540 	   78.2580 	    6.0000 	   53.0000 	   26.4315 
    1.8997 	   78.2980 	    6.0000 	   53.0000 	   26.4715 
    1.8387 	   78.3390 	    6.0000 	   53.0000 	   26.5126 
    1.6403 	   78.3780 	    6.0000 	   53.0000 	   26.5516 
    2.0676 	   78.4240 	    6.0000 	   53.0000 	   26.5976 
    1.6709 	   78.4680 	    6.0000 	   53.0000 	   26.6416 
    1.8235 	   78.5090 	    6.0000 	   53.0000 	   26.6816 
    1.8997 	   78.5480 	    6.0000 	   53.0000 	   26.7206 
    1.9608 	   78.5880 	    6.0000 	   53.0000 	   26.7606 
    1.9303 	   78.6270 	    6.0000 	   53.0000 	   26.7996 
    1.9150 	   78.6670 	    6.0000 	   53.0000 	   26.8396 
    1.7929 	   78.7080 	    6.0000 	   53.0000 	   26.8806 
    1.8540 	   78.7460 	    6.0000 	   53.0000 	   26.9186 
    1.8692 	   78.7850 	    6.0000 	   53.0000 	   26.9576 
    1.6556 	   78.8260 	    6.0000 	   53.0000 	   26.9986 
    1.9608 	   78.8660 	    6.0000 	   53.0000 	   27.0386 
    1.8845 	   78.9050 	    6.0000 	   53.0000 	   27.0776 
    1.9455 	   78.9460 	    6.0000 	   53.0000 	   27.1186 
    1.8692 	   78.9870 	    6.0000 	   53.0000 	   27.1596 
    1.8387 	   79.0270 	    6.0000 	   53.0000 	   27.1996 
    1.7929 	   79.0660 	    6.0000 	   53.0000 	   27.2386 
    1.9150 	   79.1040 	    6.0000 	   53.0000 	   27.2766 
    1.8235 	   79.1440 	    6.0000 	   53.0000 	   27.3166 
    1.8845 	   79.1840 	    6.0000 	   53.0000 	   27.3566 
    1.8692 	   79.2230 	    6.0000 	   53.0000 	   27.3956 
    2.0066 	   79.2620 	    6.0000 	   53.0000 	   27.4346 
    1.9150 	   79.3010 	    6.0000 	   53.0000 	   27.4736 
    1.8845 	   79.3410 	    6.0000 	   53.0000 	   27.5136 
    1.8845 	   79.3810 	    6.0000 	   53.0000 	   27.5536 
    1.9150 	   79.4240 	    6.0000 	   53.0000 	   27.5966 
    1.8387 	   79.4640 	    6.0000 	   53.0000 	   27.6366 
    1.8997 	   79.5070 	    6.0000 	   53.0000 	   27.6796 
    1.9150 	   79.5480 	    6.0000 	   53.0000 	   27.7206 
    1.8387 	   79.5910 	    6.0000 	   53.0000 	   27.7636 
    1.7472 	   79.6290 	    6.0000 	   53.0000 	   27.8016 
    1.9608 	   79.6680 	    6.0000 	   53.0000 	   27.8406 
    2.0218 	   79.7080 	    6.0000 	   53.0000 	   27.8806 
    1.9455 	   79.7480 	    6.0000 	   53.0000 	   27.9206 
    1.8997 	   79.7860 	    6.0000 	   53.0000 	   27.9586 
    1.9913 	   79.8260 	    6.0000 	   53.0000 	   27.9986 
    1.8082 	   79.8660 	    6.0000 	   53.0000 	   28.0386 
    1.6556 	   79.9070 	    6.0000 	   53.0000 	   28.0796 
    1.9303 	   79.9480 	    6.0000 	   53.0000 	   28.1206 
    1.7929 	   79.9890 	    6.0000 	   53.0000 	   28.1616 
    1.5640 	   80.0280 	    6.0000 	   53.0000 	   28.2006 
    1.8540 	   80.0680 	    6.0000 	   53.0000 	   28.2407 
    1.8692 	   80.1110 	    6.0000 	   53.0000 	   28.2837 
    2.0066 	   80.1520 	    6.0000 	   53.0000 	   28.3247 
    2.0218 	   80.1920 	    6.0000 	   53.0000 	   28.3647 
    1.7777 	   80.2300 	    6.0000 	   53.0000 	   28.4027 
    1.7624 	   80.2690 	    6.0000 	   53.0000 	   28.4417 
    1.9608 	   80.3100 	    6.0000 	   53.0000 	   28.4827 
    2.0218 	   80.3510 	    6.0000 	   53.0000 	   28.5237 
    1.5793 	   80.3930 	    6.0000 	   53.0000 	   28.5657 
    1.8997 	   80.4370 	    6.0000 	   53.0000 	   28.6097 
    1.9303 	   80.4800 	    6.0000 	   53.0000 	   28.6527 
    1.8387 	   80.5230 	    6.0000 	   53.0000 	   28.6957 
    1.8692 	   80.5660 	    6.0000 	   53.0000 	   28.7387 
    1.8692 	   80.6060 	    6.0000 	   53.0000 	   28.7787 
    1.8082 	   80.6450 	    6.0000 	   53.0000 	   28.8177 
    1.8540 	   80.6850 	    6.0000 	   53.0000 	   28.8577 
    1.8692 	   80.7250 	    6.0000 	   53.0000 	   28.8977 
    1.8997 	   80.7640 	    6.0000 	   53.0000 	   28.9367 
    1.8082 	   80.8030 	    6.0000 	   53.0000 	   28.9757 
    1.9608 	   80.8440 	    6.0000 	   53.0000 	   29.0167 
    2.0523 	   80.8850 	    6.0000 	   53.0000 	   29.0577 
    1.9150 	   80.9250 	    6.0000 	   53.0000 	   29.0977 
    2.1134 	   80.9650 	    6.0000 	   53.0000 	   29.1377 
    1.9608 	   81.0030 	    6.0000 	   53.0000 	   29.1757 
    1.9150 	   81.0430 	    6.0000 	   53.0000 	   29.2157 
    1.8540 	   81.0820 	    6.0000 	   53.0000 	   29.2547 
    1.7929 	   81.1200 	    6.0000 	   53.0000 	   29.2927 
    2.0829 	   81.1600 	    6.0000 	   53.0000 	   29.3327 
    1.9760 	   81.1980 	    6.0000 	   53.0000 	   29.3707 
    1.9608 	   81.2370 	    6.0000 	   53.0000 	   29.4097 
    1.8692 	   81.2770 	    6.0000 	   53.0000 	   29.4497 
    1.8997 	   81.3180 	    6.0000 	   53.0000 	   29.4907 
    1.9150 	   81.3570 	    6.0000 	   53.0000 	   29.5297 
    1.9303 	   81.4010 	    6.0000 	   53.0000 	   29.5737 
    2.0371 	   81.4450 	    6.0000 	   53.0000 	   29.6177 
    1.8845 	   81.4890 	    6.0000 	   53.0000 	   29.6617 
    1.7929 	   81.5320 	    6.0000 	   53.0000 	   29.7047 
    1.7319 	   81.5750 	    6.0000 	   53.0000 	   29.7477 
    1.8082 	   81.6180 	    6.0000 	   53.0000 	   29.7907 
    1.9913 	   81.6570 	    6.0000 	   53.0000 	   29.8297 
    1.9608 	   81.6950 	    6.0000 	   53.0000 	   29.8677 
    1.8082 	   81.7360 	    6.0000 	   53.0000 	   29.9087 
    1.8387 	   81.7760 	    6.0000 	   53.0000 	   29.9487 
    1.8540 	   81.8170 	    6.0000 	   53.0000 	   29.9898 
    1.7472 	   81.8550 	    6.0000 	   53.0000 	   30.0278 
    1.8845 	   81.8960 	    6.0000 	   53.0000 	   30.0688 
    1.9608 	   81.9350 	    6.0000 	   53.0000 	   30.1078 
    1.8845 	   81.9790 	    6.0000 	   53.0000 	   30.1518 
    2.0066 	   82.0190 	    6.0000 	   53.0000 	   30.1918 
    1.9150 	   82.0580 	    6.0000 	   53.0000 	   30.2308 
    2.0676 	   82.1000 	    6.0000 	   53.0000 	   30.2728 
    1.8082 	   82.1390 	    6.0000 	   53.0000 	   30.3118 
    1.9608 	   82.1780 	    6.0000 	   53.0000 	   30.3508 
    1.7777 	   82.2170 	    6.0000 	   53.0000 	   30.3898 
    1.9303 	   82.2560 	    6.0000 	   53.0000 	   30.4288 
    1.9303 	   82.2950 	    6.0000 	   53.0000 	   30.4678 
    1.8997 	   82.3340 	    6.0000 	   53.0000 	   30.5068 
    1.9608 	   82.3730 	    6.0000 	   53.0000 	   30.5458 
    1.8997 	   82.4150 	    6.0000 	   53.0000 	   30.5878 
    1.8082 	   82.4570 	    6.0000 	   53.0000 	   30.6298 
    2.0066 	   82.5030 	    6.0000 	   53.0000 	   30.6758 
    1.8387 	   82.5480 	    6.0000 	   53.0000 	   30.7208 
    1.8692 	   82.5900 	    6.0000 	   53.0000 	   30.7628 
    1.9303 	   82.6330 	    6.0000 	   53.0000 	   30.8058 
    1.9303 	   82.6730 	    6.0000 	   53.0000 	   30.8458 
    1.9303 	   82.7130 	    6.0000 	   53.0000 	   30.8858 
    1.9150 	   82.7560 	    6.0000 	   53.0000 	   30.9288 
    1.8387 	   82.7970 	    6.0000 	   53.0000 	   30.9698 
    1.8997 	   82.8360 	    6.0000 	   53.0000 	   31.0088 
    1.5946 	   82.8760 	    6.0000 	   53.0000 	   31.0488 
    1.7777 	   82.9140 	    6.0000 	   53.0000 	   31.0868 
    1.9455 	   82.9540 	    6.0000 	   53.0000 	   31.1268 
    1.8997 	   82.9940 	    6.0000 	   53.0000 	   31.1668 
    1.9303 	   83.0350 	    6.0000 	   53.0000 	   31.2078 
    1.9455 	   83.0770 	    6.0000 	   53.0000 	   31.2498 
    1.8540 	   83.1170 	    6.0000 	   53.0000 	   31.2898 
    1.7624 	   83.1590 	    6.0000 	   53.0000 	   31.3318 
    1.8540 	   83.1970 	    6.0000 	   53.0000 	   31.3698 
    1.8387 	   83.2350 	    6.0000 	   53.0000 	   31.4078 
    1.8235 	   83.2750 	    6.0000 	   53.0000 	   31.4478 
    2.0218 	   83.3140 	    6.0000 	   53.0000 	   31.4868 
    1.8997 	   83.3530 	    6.0000 	   53.0000 	   31.5258 
    1.8997 	   83.3940 	    6.0000 	   53.0000 	   31.5668 
    1.9608 	   83.4360 	    6.0000 	   53.0000 	   31.6088 
    1.9303 	   83.4830 	    6.0000 	   53.0000 	   31.6558 
    1.7777 	   83.5270 	    6.0000 	   53.0000 	   31.6998 
    1.9150 	   83.5720 	    6.0000 	   53.0000 	   31.7449 
    1.9455 	   83.6110 	    6.0000 	   53.0000 	   31.7839 
    1.9150 	   83.6540 	    6.0000 	   53.0000 	   31.8269 
    1.7472 	   83.6940 	    6.0000 	   53.0000 	   31.8669 
    1.8692 	   83.7330 	    6.0000 	   53.0000 	   31.9059 
    1.8235 	   83.7720 	    6.0000 	   53.0000 	   31.9449 
    1.7624 	   83.8130 	    6.0000 	   53.0000 	   31.9859 
    1.7319 	   83.8510 	    6.0000 	   53.0000 	   32.0239 
    1.8692 	   83.8900 	    6.0000 	   53.0000 	   32.0629 
    1.6251 	   83.9290 	    6.0000 	   53.0000 	   32.1019 
    1.6556 	   83.9680 	    6.0000 	   53.0000 	   32.1409 
    1.7472 	   84.0090 	    6.0000 	   53.0000 	   32.1819 
    1.6861 	   84.0490 	    6.0000 	   53.0000 	   32.2219 
    1.6251 	   84.0910 	    6.0000 	   53.0000 	   32.2639 
    1.6709 	   84.1300 	    6.0000 	   53.0000 	   32.3029 
    1.7166 	   84.1690 	    6.0000 	   53.0000 	   32.3419 
    1.7319 	   84.2080 	    6.0000 	   53.0000 	   32.3809 
    1.6861 	   84.2490 	    6.0000 	   53.0000 	   32.4219 
    1.7319 	   84.2890 	    6.0000 	   53.0000 	   32.4619 
    1.6098 	   84.3280 	    6.0000 	   53.0000 	   32.5009 
    1.7014 	   84.3680 	    6.0000 	   53.0000 	   32.5409 
    1.6556 	   84.4120 	    6.0000 	   53.0000 	   32.5849 
    1.6709 	   84.4560 	    6.0000 	   53.0000 	   32.6289 
    1.5335 	   84.5000 	    6.0000 	   53.0000 	   32.6729 
    1.6861 	   84.5440 	    6.0000 	   53.0000 	   32.7169 
    1.5335 	   84.5840 	    6.0000 	   53.0000 	   32.7569 
    1.7472 	   84.6230 	    6.0000 	   53.0000 	   32.7949 
    1.5488 	   84.6630 	    6.0000 	   53.0000 	   32.8359 
    1.5488 	   84.7030 	    6.0000 	   53.0000 	   32.8759 
    1.6251 	   84.7420 	    6.0000 	   53.0000 	   32.9149 
    1.4572 	   84.7820 	    6.0000 	   53.0000 	   32.9549 
    1.4115 	   84.8230 	    6.0000 	   53.0000 	   32.9959 
    1.5183 	   84.8620 	    6.0000 	   53.0000 	   33.0349 
    1.4725 	   84.9010 	    6.0000 	   53.0000 	   33.0739 
    1.5030 	   84.9410 	    6.0000 	   53.0000 	   33.1139 
    1.6556 	   84.9800 	    6.0000 	   53.0000 	   33.1529 
    1.5488 	   85.0180 	    6.0000 	   53.0000 	   33.1909 
    1.5183 	   85.0580 	    6.0000 	   53.0000 	   33.2309 
    1.5640 	   85.0970 	    6.0000 	   53.0000 	   33.2699 
    1.5183 	   85.1380 	    6.0000 	   53.0000 	   33.3109 
    1.3504 	   85.1770 	    6.0000 	   53.0000 	   33.3499 
    1.5488 	   85.2180 	    6.0000 	   53.0000 	   33.3909 
    1.4267 	   85.2560 	    6.0000 	   53.0000 	   33.4289 
    1.2741 	   85.2990 	    6.0000 	   53.0000 	   33.4720 
    1.5793 	   85.3430 	    6.0000 	   53.0000 	   33.5160 
    1.4420 	   85.3880 	    6.0000 	   53.0000 	   33.5610 
    1.1063 	   85.4350 	    6.0000 	   53.0000 	   33.6080 
    1.4267 	   85.4790 	    6.0000 	   53.0000 	   33.6520 
    1.5030 	   85.5210 	    6.0000 	   53.0000 	   33.6940 
    1.4725 	   85.5620 	    6.0000 	   53.0000 	   33.7350 
    1.5335 	   85.6010 	    6.0000 	   53.0000 	   33.7740 
    1.4725 	   85.6420 	    6.0000 	   53.0000 	   33.8150 
    1.5183 	   85.6840 	    6.0000 	   53.0000 	   33.8570 
    1.4115 	   85.7270 	    6.0000 	   53.0000 	   33.9000 
    1.2589 	   85.7720 	    6.0000 	   53.0000 	   33.9450 
    1.4572 	   85.8150 	    6.0000 	   53.0000 	   33.9880 
    1.4115 	   85.8570 	    6.0000 	   53.0000 	   34.0300 
    1.3657 	   85.9010 	    6.0000 	   53.0000 	   34.0740 
    1.3809 	   85.9450 	    6.0000 	   53.0000 	   34.1180 
    1.3809 	   85.9870 	    6.0000 	   53.0000 	   34.1600 
    1.3657 	   86.0310 	    6.0000 	   53.0000 	   34.2040 
    1.3962 	   86.0750 	    6.0000 	   53.0000 	   34.2480 
    1.4420 	   86.1200 	    6.0000 	   53.0000 	   34.2930 
    1.3504 	   86.1650 	    6.0000 	   53.0000 	   34.3380 
    1.4267 	   86.2080 	    6.0000 	   53.0000 	   34.3810 
    1.3199 	   86.2520 	    6.0000 	   53.0000 	   34.4250 
    1.4420 	   86.2930 	    6.0000 	   53.0000 	   34.4660 
    1.3809 	   86.3360 	    6.0000 	   53.0000 	   34.5090 
    1.4572 	   86.3760 	    6.0000 	   53.0000 	   34.5490 
    1.4878 	   86.4180 	    6.0000 	   53.0000 	   34.5910 
    1.2894 	   86.4640 	    6.0000 	   53.0000 	   34.6370 
    1.3504 	   86.5130 	    6.0000 	   53.0000 	   34.6860 
    1.3962 	   86.5540 	    6.0000 	   53.0000 	   34.7270 
    1.2894 	   86.5930 	    6.0000 	   53.0000 	   34.7660 
    1.3504 	   86.6310 	    6.0000 	   53.0000 	   34.8040 
    1.3352 	   86.6710 	    6.0000 	   53.0000 	   34.8440 
    1.3352 	   86.7150 	    6.0000 	   53.0000 	   34.8880 
    1.4115 	   86.7600 	    6.0000 	   53.0000 	   34.9330 
    1.3199 	   86.8030 	    6.0000 	   53.0000 	   34.9760 
    1.2436 	   86.8480 	    6.0000 	   53.0000 	   35.0210 
    1.2131 	   86.8900 	    6.0000 	   53.0000 	   35.0630 
    1.2741 	   86.9360 	    6.0000 	   53.0000 	   35.1090 
    1.3504 	   86.9770 	    6.0000 	   53.0000 	   35.1500 
    1.2894 	   87.0200 	    6.0000 	   53.0000 	   35.1931 
    1.3504 	   87.0660 	    6.0000 	   53.0000 	   35.2391 
    1.1978 	   87.1090 	    6.0000 	   53.0000 	   35.2821 
    1.2589 	   87.1520 	    6.0000 	   53.0000 	   35.3251 
    1.1521 	   87.1980 	    6.0000 	   53.0000 	   35.3711 
    1.4267 	   87.2410 	    6.0000 	   53.0000 	   35.4141 
    1.3199 	   87.2840 	    6.0000 	   53.0000 	   35.4571 
    1.3046 	   87.3260 	    6.0000 	   53.0000 	   35.4991 
    1.2436 	   87.3660 	    6.0000 	   53.0000 	   35.5391 
    1.2589 	   87.4090 	    6.0000 	   53.0000 	   35.5821 
    1.2284 	   87.4630 	    6.0000 	   53.0000 	   35.6361 
    1.1215 	   87.5110 	    6.0000 	   53.0000 	   35.6841 
    1.2436 	   87.5520 	    6.0000 	   53.0000 	   35.7251 
    1.2894 	   87.5920 	    6.0000 	   53.0000 	   35.7641 
    1.2284 	   87.6310 	    6.0000 	   53.0000 	   35.8041 
    1.3352 	   87.6690 	    6.0000 	   53.0000 	   35.8421 
    1.2894 	   87.7110 	    6.0000 	   53.0000 	   35.8841 
    1.3657 	   87.7510 	    6.0000 	   53.0000 	   35.9241 
    1.3504 	   87.7900 	    6.0000 	   53.0000 	   35.9631 
    1.2436 	   87.8320 	    6.0000 	   53.0000 	   36.0051 
    1.1673 	   87.8750 	    6.0000 	   53.0000 	   36.0481 
    1.2741 	   87.9210 	    6.0000 	   53.0000 	   36.0941 
    1.2436 	   87.9650 	    6.0000 	   53.0000 	   36.1381 
    1.1673 	   88.0090 	    6.0000 	   53.0000 	   36.1821 
    1.2131 	   88.0540 	    6.0000 	   53.0000 	   36.2271 
    1.3046 	   88.1030 	    6.0000 	   53.0000 	   36.2761 
    1.1063 	   88.1440 	    6.0000 	   53.0000 	   36.3171 
    1.2131 	   88.1880 	    6.0000 	   53.0000 	   36.3611 
    1.3199 	   88.2340 	    6.0000 	   53.0000 	   36.4071 
    1.0452 	   88.2760 	    6.0000 	   53.0000 	   36.4491 
    1.2131 	   88.3190 	    6.0000 	   53.0000 	   36.4921 
    1.3199 	   88.3620 	    6.0000 	   53.0000 	   36.5351 
    1.2284 	   88.4030 	    6.0000 	   53.0000 	   36.5761 
    1.2284 	   88.4450 	    6.0000 	   53.0000 	   36.6181 
    1.1978 	   88.4910 	    6.0000 	   53.0000 	   36.6641 
    1.2284 	   88.5350 	    6.0000 	   53.0000 	   36.7081 
    1.1368 	   88.5810 	    6.0000 	   53.0000 	   36.7541 
    1.2436 	   88.6210 	    6.0000 	   53.0000 	   36.7941 
    1.1368 	   88.6600 	    6.0000 	   53.0000 	   36.8331 
    1.1978 	   88.6990 	    6.0000 	   53.0000 	   36.8721 
    1.2131 	   88.7400 	    6.0000 	   53.0000 	   36.9131 
    1.1826 	   88.7810 	    6.0000 	   53.0000 	   36.9542 
    0.9537 	   88.8230 	    6.0000 	   53.0000 	   36.9962 
    1.1978 	   88.8670 	    6.0000 	   53.0000 	   37.0402 
    1.1063 	   88.9100 	    6.0000 	   53.0000 	   37.0832 
    1.1673 	   88.9530 	    6.0000 	   53.0000 	   37.1262 
    1.1826 	   88.9930 	    6.0000 	   53.0000 	   37.1662 
    1.1673 	   89.0320 	    6.0000 	   53.0000 	   37.2052 
    1.3046 	   89.0710 	    6.0000 	   53.0000 	   37.2442 
    1.3046 	   89.1120 	    6.0000 	   53.0000 	   37.2852 
    1.0605 	   89.1520 	    6.0000 	   53.0000 	   37.3252 
    1.0605 	   89.1910 	    6.0000 	   53.0000 	   37.3642 
    1.1978 	   89.2310 	    6.0000 	   53.0000 	   37.4042 
    1.0452 	   89.2700 	    6.0000 	   53.0000 	   37.4432 
    1.0605 	   89.3110 	    6.0000 	   53.0000 	   37.4842 
    1.0758 	   89.3520 	    6.0000 	   53.0000 	   37.5252 
    1.1368 	   89.3910 	    6.0000 	   53.0000 	   37.5642 
    1.2589 	   89.4320 	    6.0000 	   53.0000 	   37.6052 
    1.0758 	   89.4770 	    6.0000 	   53.0000 	   37.6502 
    1.0300 	   89.5450 	    6.0000 	   53.0000 	   37.7182 
    1.2894 	   89.5920 	    6.0000 	   53.0000 	   37.7652 
    1.0758 	   89.6330 	    6.0000 	   53.0000 	   37.8062 
    1.2589 	   89.6720 	    6.0000 	   53.0000 	   37.8452 
    1.1368 	   89.7130 	    6.0000 	   53.0000 	   37.8862 
    1.1826 	   89.7560 	    6.0000 	   53.0000 	   37.9292 
    1.1826 	   89.8030 	    6.0000 	   53.0000 	   37.9762 
    1.1368 	   89.8480 	    6.0000 	   53.0000 	   38.0212 
    1.2894 	   89.8910 	    6.0000 	   53.0000 	   38.0642 
    1.1368 	   89.9350 	    6.0000 	   53.0000 	   38.1082 
    1.1826 	   89.9800 	    6.0000 	   53.0000 	   38.1532 
    0.7706 	   90.0240 	    6.0000 	   53.0000 	   38.1972 
    1.1063 	   90.0680 	    6.0000 	   53.0000 	   38.2412 
    1.1826 	   90.1160 	    6.0000 	   53.0000 	   38.2892 
    1.0147 	   90.1600 	    6.0000 	   53.0000 	   38.3332 
    0.9995 	   90.2040 	    6.0000 	   53.0000 	   38.3772 
    1.0910 	   90.2480 	    6.0000 	   53.0000 	   38.4212 
    0.9079 	   90.2920 	    6.0000 	   53.0000 	   38.4652 
    1.1368 	   90.3370 	    6.0000 	   53.0000 	   38.5102 
    1.0758 	   90.3810 	    6.0000 	   53.0000 	   38.5542 
    1.0605 	   90.4240 	    6.0000 	   53.0000 	   38.5972 
    1.1063 	   90.5060 	    6.0000 	   53.0000 	   38.6792 
    1.0147 	   90.5770 	    6.0000 	   53.0000 	   38.7503 
    1.1063 	   90.6200 	    6.0000 	   53.0000 	   38.7933 
    1.2284 	   90.6650 	    6.0000 	   53.0000 	   38.8383 
    1.1826 	   90.7030 	    6.0000 	   53.0000 	   38.8763 
    1.1521 	   90.7430 	    6.0000 	   53.0000 	   38.9163 
    0.9079 	   90.7850 	    6.0000 	   53.0000 	   38.9583 
    1.1215 	   90.8310 	    6.0000 	   53.0000 	   39.0043 
    0.9842 	   90.8720 	    6.0000 	   53.0000 	   39.0453 
    1.0300 	   90.9180 	    6.0000 	   53.0000 	   39.0913 
    0.9232 	   90.9630 	    6.0000 	   53.0000 	   39.1363 
    1.0758 	   91.0080 	    6.0000 	   53.0000 	   39.1813 
    0.8774 	   91.0550 	    6.0000 	   53.0000 	   39.2283 
    0.9537 	   91.1000 	    6.0000 	   53.0000 	   39.2733 
    0.8164 	   91.1430 	    6.0000 	   53.0000 	   39.3163 
    0.9842 	   91.1870 	    6.0000 	   53.0000 	   39.3603 
    1.0300 	   91.2330 	    6.0000 	   53.0000 	   39.4063 
    0.9537 	   91.2770 	    6.0000 	   53.0000 	   39.4503 
    1.1063 	   91.3200 	    6.0000 	   53.0000 	   39.4933 
    0.9995 	   91.3630 	    6.0000 	   53.0000 	   39.5363 
    1.0910 	   91.4030 	    6.0000 	   53.0000 	   39.5763 
    0.9537 	   91.4440 	    6.0000 	   53.0000 	   39.6173 
    0.9384 	   91.4840 	    6.0000 	   53.0000 	   39.6573 
    0.9079 	   91.5260 	    6.0000 	   53.0000 	   39.6993 
    0.9384 	   91.5750 	    6.0000 	   53.0000 	   39.7483 
    0.9842 	   91.6220 	    6.0000 	   53.0000 	   39.7953 
    1.0452 	   91.6650 	    6.0000 	   53.0000 	   39.8383 
    1.0605 	   91.7030 	    6.0000 	   53.0000 	   39.8763 
    0.9995 	   91.7420 	    6.0000 	   53.0000 	   39.9153 
    1.1826 	   91.7820 	    6.0000 	   53.0000 	   39.9553 
    1.1368 	   91.8240 	    6.0000 	   53.0000 	   39.9973 
    0.9689 	   91.8640 	    6.0000 	   53.0000 	   40.0373 
    1.2436 	   91.9070 	    6.0000 	   53.0000 	   40.0803 
    1.0147 	   91.9520 	    6.0000 	   53.0000 	   40.1253 
    0.9537 	   91.9930 	    6.0000 	   53.0000 	   40.1663 
    1.1368 	   92.0370 	    6.0000 	   53.0000 	   40.2103 
    1.0147 	   92.0830 	    6.0000 	   53.0000 	   40.2563 
    1.0147 	   92.1310 	    6.0000 	   53.0000 	   40.3043 
    0.9995 	   92.1740 	    6.0000 	   53.0000 	   40.3473 
    0.9842 	   92.2180 	    6.0000 	   53.0000 	   40.3913 
    1.1063 	   92.2640 	    6.0000 	   53.0000 	   40.4373 
    1.0605 	   92.3080 	    6.0000 	   53.0000 	   40.4813 
    0.9689 	   92.3550 	    6.0000 	   53.0000 	   40.5284 
    1.0452 	   92.3990 	    6.0000 	   53.0000 	   40.5724 
    0.8469 	   92.4430 	    6.0000 	   53.0000 	   40.6164 
    1.0300 	   92.4850 	    6.0000 	   53.0000 	   40.6584 
    1.0605 	   92.5300 	    6.0000 	   53.0000 	   40.7034 
    0.9384 	   92.5820 	    6.0000 	   53.0000 	   40.7554 
    1.0605 	   92.6280 	    6.0000 	   53.0000 	   40.8014 
    1.1521 	   92.6740 	    6.0000 	   53.0000 	   40.8474 
    0.9689 	   92.7170 	    6.0000 	   53.0000 	   40.8904 
    0.9995 	   92.7570 	    6.0000 	   53.0000 	   40.9304 
    1.0452 	   92.7960 	    6.0000 	   53.0000 	   40.9694 
    0.9537 	   92.8410 	    6.0000 	   53.0000 	   41.0144 
    1.1368 	   92.8860 	    6.0000 	   53.0000 	   41.0594 
    0.9232 	   92.9310 	    6.0000 	   53.0000 	   41.1044 
    1.0910 	   92.9740 	    6.0000 	   53.0000 	   41.1474 
    1.1368 	   93.0200 	    6.0000 	   53.0000 	   41.1934 
    1.1215 	   93.0640 	    6.0000 	   53.0000 	   41.2374 
    1.0300 	   93.1070 	    6.0000 	   53.0000 	   41.2804 
    1.1063 	   93.1530 	    6.0000 	   53.0000 	   41.3264 
    1.0452 	   93.1980 	    6.0000 	   53.0000 	   41.3714 
    0.8469 	   93.2440 	    6.0000 	   53.0000 	   41.4174 
    1.0452 	   93.2890 	    6.0000 	   53.0000 	   41.4624 
    1.0758 	   93.3350 	    6.0000 	   53.0000 	   41.5084 
    0.9537 	   93.3790 	    6.0000 	   53.0000 	   41.5524 
    0.9537 	   93.4250 	    6.0000 	   53.0000 	   41.5984 
    0.8927 	   93.4700 	    6.0000 	   53.0000 	   41.6434 
    0.9842 	   93.5190 	    6.0000 	   53.0000 	   41.6924 
    0.8164 	   93.5610 	    6.0000 	   53.0000 	   41.7344 
    1.0300 	   93.6040 	    6.0000 	   53.0000 	   41.7774 
    0.9079 	   93.6640 	    6.0000 	   53.0000 	   41.8374 
    0.9384 	   93.7090 	    6.0000 	   53.0000 	   41.8824 
    0.9689 	   93.7530 	    6.0000 	   53.0000 	   41.9264 
    0.7858 	   93.7930 	    6.0000 	   53.0000 	   41.9664 
    0.9995 	   93.8350 	    6.0000 	   53.0000 	   42.0084 
    0.9537 	   93.8830 	    6.0000 	   53.0000 	   42.0564 
    1.0300 	   93.9240 	    6.0000 	   53.0000 	   42.0974 
    0.9079 	   93.9650 	    6.0000 	   53.0000 	   42.1384 
    0.9995 	   94.0060 	    6.0000 	   53.0000 	   42.1794 
    0.9079 	   94.0460 	    6.0000 	   53.0000 	   42.2195 
    1.0147 	   94.0920 	    6.0000 	   53.0000 	   42.2655 
    0.9995 	   94.1330 	    6.0000 	   53.0000 	   42.3065 
    0.9232 	   94.1750 	    6.0000 	   53.0000 	   42.3485 
    1.1215 	   94.2150 	    6.0000 	   53.0000 	   42.3885 
    0.9232 	   94.2550 	    6.0000 	   53.0000 	   42.4285 
    1.0452 	   94.2970 	    6.0000 	   53.0000 	   42.4705 
    0.9079 	   94.3370 	    6.0000 	   53.0000 	   42.5105 
    1.0147 	   94.3780 	    6.0000 	   53.0000 	   42.5515 
    0.8164 	   94.4200 	    6.0000 	   53.0000 	   42.5935 
    1.0147 	   94.4620 	    6.0000 	   53.0000 	   42.6355 
    0.9995 	   94.5030 	    6.0000 	   53.0000 	   42.6765 
    0.9232 	   94.5450 	    6.0000 	   53.0000 	   42.7185 
    0.8316 	   94.5960 	    6.0000 	   53.0000 	   42.7695 
    0.9842 	   94.6450 	    6.0000 	   53.0000 	   42.8185 
    0.9689 	   94.6900 	    6.0000 	   53.0000 	   42.8635 
    0.7401 	   94.7350 	    6.0000 	   53.0000 	   42.9085 
    1.0605 	   94.7800 	    6.0000 	   53.0000 	   42.9525 
    0.8316 	   94.8220 	    6.0000 	   53.0000 	   42.9955 
    0.9079 	   94.8620 	    6.0000 	   53.0000 	   43.0355 
    0.9079 	   94.9060 	    6.0000 	   53.0000 	   43.0795 
    0.6180 	   94.9510 	    6.0000 	   53.0000 	   43.1245 
    1.0910 	   95.0410 	    6.0000 	   53.0000 	   43.2145 
    0.8164 	   95.0930 	    6.0000 	   53.0000 	   43.2665 
    0.7858 	   95.1310 	    6.0000 	   53.0000 	   43.3045 
    0.8621 	   95.1700 	    6.0000 	   53.0000 	   43.3435 
    0.9384 	   95.2100 	    6.0000 	   53.0000 	   43.3835 
    1.0147 	   95.2510 	    6.0000 	   53.0000 	   43.4235 
    0.9995 	   95.2900 	    6.0000 	   53.0000 	   43.4635 
    0.9079 	   95.3330 	    6.0000 	   53.0000 	   43.5065 
    0.9232 	   95.3770 	    6.0000 	   53.0000 	   43.5505 
    0.8316 	   95.4200 	    6.0000 	   53.0000 	   43.5935 
    1.0147 	   95.4640 	    6.0000 	   53.0000 	   43.6375 
    0.8164 	   95.5070 	    6.0000 	   53.0000 	   43.6805 
    0.8011 	   95.5480 	    6.0000 	   53.0000 	   43.7215 
    0.9232 	   95.5980 	    6.0000 	   53.0000 	   43.7715 
    0.9384 	   95.6430 	    6.0000 	   53.0000 	   43.8165 
    1.0452 	   95.6870 	    6.0000 	   53.0000 	   43.8605 
    0.8316 	   95.7340 	    6.0000 	   53.0000 	   43.9075 
    0.5417 	   95.7740 	    6.0000 	   53.0000 	   43.9475 
    0.7553 	   95.8170 	    6.0000 	   53.0000 	   43.9906 
    0.9689 	   95.8620 	    6.0000 	   53.0000 	   44.0356 
    0.8011 	   95.9030 	    6.0000 	   53.0000 	   44.0766 
    0.8774 	   95.9430 	    6.0000 	   53.0000 	   44.1166 
    0.6943 	   95.9870 	    6.0000 	   53.0000 	   44.1596 
    0.8621 	   96.0320 	    6.0000 	   53.0000 	   44.2046 
    0.8621 	   96.0730 	    6.0000 	   53.0000 	   44.2456 
    0.8011 	   96.1210 	    6.0000 	   53.0000 	   44.2936 
    0.8774 	   96.1660 	    6.0000 	   53.0000 	   44.3386 
    0.9232 	   96.2080 	    6.0000 	   53.0000 	   44.3806 
    1.0300 	   96.2490 	    6.0000 	   53.0000 	   44.4216 
    0.8011 	   96.2930 	    6.0000 	   53.0000 	   44.4656 
    0.8469 	   96.3370 	    6.0000 	   53.0000 	   44.5096 
    0.8774 	   96.3800 	    6.0000 	   53.0000 	   44.5526 
    0.8469 	   96.4230 	    6.0000 	   53.0000 	   44.5956 
    0.8011 	   96.4650 	    6.0000 	   53.0000 	   44.6376 
    0.8469 	   96.5050 	    6.0000 	   53.0000 	   44.6776 
    0.9537 	   96.5450 	    6.0000 	   53.0000 	   44.7176 
    0.8621 	   96.5950 	    6.0000 	   53.0000 	   44.7676 
    0.9689 	   96.6440 	    6.0000 	   53.0000 	   44.8166 
    0.9232 	   96.6880 	    6.0000 	   53.0000 	   44.8606 
    0.9079 	   96.7350 	    6.0000 	   53.0000 	   44.9076 
    0.9232 	   96.7800 	    6.0000 	   53.0000 	   44.9526 
    0.8011 	   96.8190 	    6.0000 	   53.0000 	   44.9916 
    0.8011 	   96.8570 	    6.0000 	   53.0000 	   45.0296 
    0.7858 	   96.8990 	    6.0000 	   53.0000 	   45.0716 
    0.6638 	   96.9440 	    6.0000 	   53.0000 	   45.1166 
    0.8316 	   96.9850 	    6.0000 	   53.0000 	   45.1576 
    0.8621 	   97.0270 	    6.0000 	   53.0000 	   45.1996 
    0.7553 	   97.0670 	    6.0000 	   53.0000 	   45.2396 
    0.9232 	   97.1070 	    6.0000 	   53.0000 	   45.2796 
    0.8164 	   97.1510 	    6.0000 	   53.0000 	   45.3236 
    0.7706 	   97.1940 	    6.0000 	   53.0000 	   45.3666 
    0.8316 	   97.2360 	    6.0000 	   53.0000 	   45.4086 
    0.8011 	   97.2810 	    6.0000 	   53.0000 	   45.4536 
    0.8621 	   97.3250 	    6.0000 	   53.0000 	   45.4976 
    0.9384 	   97.3700 	    6.0000 	   53.0000 	   45.5426 
    0.7858 	   97.4130 	    6.0000 	   53.0000 	   45.5856 
    0.8011 	   97.4570 	    6.0000 	   53.0000 	   45.6296 
    0.8774 	   97.5010 	    6.0000 	   53.0000 	   45.6736 
    0.9689 	   97.5440 	    6.0000 	   53.0000 	   45.7167 
    0.7858 	   97.5850 	    6.0000 	   53.0000 	   45.7577 
    0.8621 	   97.6390 	    6.0000 	   53.0000 	   45.8117 
    1.0910 	   97.6810 	    6.0000 	   53.0000 	   45.8537 
    0.8621 	   97.7250 	    6.0000 	   53.0000 	   45.8977 
    0.9384 	   97.7700 	    6.0000 	   53.0000 	   45.9427 
    0.6027 	   97.8100 	    6.0000 	   53.0000 	   45.9827 
    0.8316 	   97.8480 	    6.0000 	   53.0000 	   46.0207 
    0.6180 	   97.8890 	    6.0000 	   53.0000 	   46.0617 
    0.5722 	   97.9300 	    6.0000 	   53.0000 	   46.1027 
    0.8011 	   97.9700 	    6.0000 	   53.0000 	   46.1427 
    0.8927 	   98.0120 	    6.0000 	   53.0000 	   46.1847 
    0.8469 	   98.0540 	    6.0000 	   53.0000 	   46.2267 
    0.9384 	   98.0980 	    6.0000 	   53.0000 	   46.2707 
    0.8469 	   98.1390 	    6.0000 	   53.0000 	   46.3117 
    0.8469 	   98.1790 	    6.0000 	   53.0000 	   46.3517 
    0.8469 	   98.2220 	    6.0000 	   53.0000 	   46.3947 
    0.8621 	   98.2680 	    6.0000 	   53.0000 	   46.4407 
    0.7553 	   98.3130 	    6.0000 	   53.0000 	   46.4857 
    0.5570 	   98.3560 	    6.0000 	   53.0000 	   46.5287 
    0.8011 	   98.3990 	    6.0000 	   53.0000 	   46.5717 
    0.6790 	   98.4440 	    6.0000 	   53.0000 	   46.6167 
    0.8469 	   98.4860 	    6.0000 	   53.0000 	   46.6587 
    0.7553 	   98.5300 	    6.0000 	   53.0000 	   46.7027 
    0.7401 	   98.5730 	    6.0000 	   53.0000 	   46.7457 
    0.6943 	   98.6150 	    6.0000 	   53.0000 	   46.7877 
    0.7553 	   98.6590 	    6.0000 	   53.0000 	   46.8317 
    0.7858 	   98.7060 	    6.0000 	   53.0000 	   46.8787 
    0.7401 	   98.7530 	    6.0000 	   53.0000 	   46.9257 
    0.8621 	   98.7990 	    6.0000 	   53.0000 	   46.9717 
    0.7401 	   98.8410 	    6.0000 	   53.0000 	   47.0137 
    0.9384 	   98.8840 	    6.0000 	   53.0000 	   47.0567 
    0.8469 	   98.9270 	    6.0000 	   53.0000 	   47.0997 
    0.8316 	   98.9690 	    6.0000 	   53.0000 	   47.1417 
    0.7401 	   99.0120 	    6.0000 	   53.0000 	   47.1847 
    0.6638 	   99.0550 	    6.0000 	   53.0000 	   47.2277 
    0.8011 	   99.0960 	    6.0000 	   53.0000 	   47.2687 
    0.8164 	   99.1370 	    6.0000 	   53.0000 	   47.3097 
    0.8774 	   99.1790 	    6.0000 	   53.0000 	   47.3517 
    0.7248 	   99.2190 	    6.0000 	   53.0000 	   47.3917 
    0.7553 	   99.2610 	    6.0000 	   53.0000 	   47.4338 
    0.9842 	   99.3020 	    6.0000 	   53.0000 	   47.4748 
    0.6180 	   99.3430 	    6.0000 	   53.0000 	   47.5158 
    0.7858 	   99.3840 	    6.0000 	   53.0000 	   47.5568 
    0.7706 	   99.4250 	    6.0000 	   53.0000 	   47.5978 
    0.8621 	   99.4680 	    6.0000 	   53.0000 	   47.6408 
    0.7553 	   99.5130 	    6.0000 	   53.0000 	   47.6858 
    0.8164 	   99.5540 	    6.0000 	   53.0000 	   47.7268 
    0.9079 	   99.5950 	    6.0000 	   53.0000 	   47.7678 
    0.8316 	   99.6430 	    6.0000 	   53.0000 	   47.8158 
    0.9079 	   99.6920 	    6.0000 	   53.0000 	   47.8648 
    0.8316 	   99.7360 	    6.0000 	   53.0000 	   47.9088 
    0.9232 	   99.7800 	    6.0000 	   53.0000 	   47.9528 
    0.7401 	   99.8210 	    6.0000 	   53.0000 	   47.9938 
    0.7706 	   99.8610 	    6.0000 	   53.0000 	   48.0338 
    0.7401 	   99.9000 	    6.0000 	   53.0000 	   48.0728 
    0.8774 	   99.9410 	    6.0000 	   53.0000 	   48.1138 
    0.8469 	   99.9810 	    6.0000 	   53.0000 	   48.1538 
    0.7706 	  100.0230 	    6.0000 	   53.0000 	   48.1958 
    0.6027 	  100.0650 	    6.0000 	   53.0000 	   48.2378 
    0.8011 	  100.1100 	    6.0000 	   53.0000 	   48.2828 
    0.7401 	  100.1540 	    6.0000 	   53.0000 	   48.3268 
    0.7858 	  100.1990 	    6.0000 	   53.0000 	   48.3718 
    0.7401 	  100.2450 	    6.0000 	   53.0000 	   48.4178 
    0.5722 	  100.2900 	    6.0000 	   53.0000 	   48.4628 
    0.6943 	  100.3340 	    6.0000 	   53.0000 	   48.5068 
    0.8621 	  100.3770 	    6.0000 	   53.0000 	   48.5498 
    0.7553 	  100.4210 	    6.0000 	   53.0000 	   48.5938 
    0.8469 	  100.4660 	    6.0000 	   53.0000 	   48.6388 
    0.7706 	  100.5100 	    6.0000 	   53.0000 	   48.6828 
    0.8316 	  100.5540 	    6.0000 	   53.0000 	   48.7268 
    0.8927 	  100.5970 	    6.0000 	   53.0000 	   48.7698 
    0.7401 	  100.6420 	    6.0000 	   53.0000 	   48.8148 
    0.7706 	  100.6910 	    6.0000 	   53.0000 	   48.8638 
    0.8316 	  100.7380 	    6.0000 	   53.0000 	   48.9108 
    0.8469 	  100.7820 	    6.0000 	   53.0000 	   48.9548 
    0.8011 	  100.8240 	    6.0000 	   53.0000 	   48.9968 
    0.8927 	  100.8640 	    6.0000 	   53.0000 	   49.0368 
    0.8621 	  100.9040 	    6.0000 	   53.0000 	   49.0768 
    0.9079 	  100.9440 	    6.0000 	   53.0000 	   49.1168 
    0.8927 	  100.9880 	    6.0000 	   53.0000 	   49.1608 
    0.7858 	  101.0340 	    6.0000 	   53.0000 	   49.2069 
    0.5875 	  101.0770 	    6.0000 	   53.0000 	   49.2499 
    0.8011 	  101.1200 	    6.0000 	   53.0000 	   49.2929 
    0.7401 	  101.1620 	    6.0000 	   53.0000 	   49.3349 
    0.8774 	  101.2030 	    6.0000 	   53.0000 	   49.3759 
    0.8011 	  101.2470 	    6.0000 	   53.0000 	   49.4199 
    0.8011 	  101.2910 	    6.0000 	   53.0000 	   49.4639 
    0.7706 	  101.3360 	    6.0000 	   53.0000 	   49.5089 
    0.8316 	  101.3810 	    6.0000 	   53.0000 	   49.5539 
    0.6485 	  101.4250 	    6.0000 	   53.0000 	   49.5979 
    0.8164 	  101.4690 	    6.0000 	   53.0000 	   49.6419 
    0.8774 	  101.5130 	    6.0000 	   53.0000 	   49.6859 
    0.7095 	  101.5560 	    6.0000 	   53.0000 	   49.7289 
    0.7706 	  101.6020 	    6.0000 	   53.0000 	   49.7749 
    0.7401 	  101.6430 	    6.0000 	   53.0000 	   49.8159 
    0.8469 	  101.6900 	    6.0000 	   53.0000 	   49.8629 
    0.7706 	  101.7350 	    6.0000 	   53.0000 	   49.9079 
    0.7401 	  101.7800 	    6.0000 	   53.0000 	   49.9529 
    0.7706 	  101.8250 	    6.0000 	   53.0000 	   49.9979 
    0.8621 	  101.8690 	    6.0000 	   53.0000 	   50.0419 
    0.8621 	  101.9080 	    6.0000 	   53.0000 	   50.0809 
    0.8927 	  101.9510 	    6.0000 	   53.0000 	   50.1239 
    0.7553 	  101.9940 	    6.0000 	   53.0000 	   50.1669 
    0.7553 	  102.0390 	    6.0000 	   53.0000 	   50.2119 
    0.6332 	  102.0850 	    6.0000 	   53.0000 	   50.2579 
    0.6638 	  102.1280 	    6.0000 	   53.0000 	   50.3009 
    0.7248 	  102.1720 	    6.0000 	   53.0000 	   50.3449 
    0.7401 	  102.2160 	    6.0000 	   53.0000 	   50.3889 
    0.8164 	  102.2600 	    6.0000 	   53.0000 	   50.4329 
    0.9232 	  102.3050 	    6.0000 	   53.0000 	   50.4779 
    0.4959 	  102.3470 	    6.0000 	   53.0000 	   50.5199 
    0.6638 	  102.3870 	    6.0000 	   53.0000 	   50.5599 
    0.7248 	  102.4300 	    6.0000 	   53.0000 	   50.6029 
    0.8011 	  102.4700 	    6.0000 	   53.0000 	   50.6429 
    0.7095 	  102.5120 	    6.0000 	   53.0000 	   50.6849 
    0.7095 	  102.5520 	    6.0000 	   53.0000 	   50.7249 
    0.7553 	  102.5980 	    6.0000 	   53.0000 	   50.7709 
    0.7095 	  102.6400 	    6.0000 	   53.0000 	   50.8129 
    0.5722 	  102.6850 	    6.0000 	   53.0000 	   50.8579 
    0.8927 	  102.7280 	    6.0000 	   53.0000 	   50.9009 
    0.6485 	  102.7750 	    6.0000 	   53.0000 	   50.9479 
    0.7401 	  102.8190 	    6.0000 	   53.0000 	   50.9920 
    0.7248 	  102.8590 	    6.0000 	   53.0000 	   51.0320 
    0.7553 	  102.9000 	    6.0000 	   53.0000 	   51.0730 
    0.6638 	  102.9400 	    6.0000 	   53.0000 	   51.1130 
    0.8469 	  102.9820 	    6.0000 	   53.0000 	   51.1550 
    0.8469 	  103.0280 	    6.0000 	   53.0000 	   51.2010 
    0.7095 	  103.0730 	    6.0000 	   53.0000 	   51.2460 
    0.7401 	  103.1190 	    6.0000 	   53.0000 	   51.2920 
    0.6638 	  103.1620 	    6.0000 	   53.0000 	   51.3350 
    0.7553 	  103.2060 	    6.0000 	   53.0000 	   51.3790 
    0.8316 	  103.2510 	    6.0000 	   53.0000 	   51.4240 
    0.8621 	  103.2940 	    6.0000 	   53.0000 	   51.4670 
    0.4196 	  103.3400 	    6.0000 	   53.0000 	   51.5130 
    0.7401 	  103.3870 	    6.0000 	   53.0000 	   51.5600 
    0.8164 	  103.4340 	    6.0000 	   53.0000 	   51.6070 
    0.4959 	  103.4810 	    6.0000 	   53.0000 	   51.6540 
    0.7095 	  103.5260 	    6.0000 	   53.0000 	   51.6990 
    0.7401 	  103.5710 	    6.0000 	   53.0000 	   51.7440 
    0.7553 	  103.6170 	    6.0000 	   53.0000 	   51.7900 
    0.6943 	  103.6610 	    6.0000 	   53.0000 	   51.8340 
    0.7706 	  103.7040 	    6.0000 	   53.0000 	   51.8770 
    0.8164 	  103.7460 	    6.0000 	   53.0000 	   51.9190 
    0.6638 	  103.7870 	    6.0000 	   53.0000 	   51.9600 
    0.6485 	  103.8290 	    6.0000 	   53.0000 	   52.0020 
    0.6332 	  103.8700 	    6.0000 	   53.0000 	   52.0430 
    0.6180 	  103.9100 	    6.0000 	   53.0000 	   52.0830 
    0.4959 	  103.9490 	    6.0000 	   53.0000 	   52.1220 
    0.8164 	  103.9900 	    6.0000 	   53.0000 	   52.1630 
    0.6485 	  104.0300 	    6.0000 	   53.0000 	   52.2030 
    0.7553 	  104.0700 	    6.0000 	   53.0000 	   52.2430 
    0.8774 	  104.1120 	    6.0000 	   53.0000 	   52.2850 
    0.6790 	  104.1520 	    6.0000 	   53.0000 	   52.3250 
    0.5875 	  104.1940 	    6.0000 	   53.0000 	   52.3660 
    0.7095 	  104.2360 	    6.0000 	   53.0000 	   52.4090 
    0.6943 	  104.2760 	    6.0000 	   53.0000 	   52.4490 
    0.3738 	  104.3160 	    6.0000 	   53.0000 	   52.4890 
    0.7401 	  104.3600 	    6.0000 	   53.0000 	   52.5330 
    0.6790 	  104.4070 	    6.0000 	   53.0000 	   52.5800 
    0.8469 	  104.4500 	    6.0000 	   53.0000 	   52.6230 
    0.6790 	  104.4950 	    6.0000 	   53.0000 	   52.6680 
    0.6638 	  104.5390 	    6.0000 	   53.0000 	   52.7121 
    0.7858 	  104.5830 	    6.0000 	   53.0000 	   52.7561 
    0.6180 	  104.6270 	    6.0000 	   53.0000 	   52.8001 
    0.6332 	  104.6720 	    6.0000 	   53.0000 	   52.8451 
    0.7095 	  104.7130 	    6.0000 	   53.0000 	   52.8861 
    0.7553 	  104.7550 	    6.0000 	   53.0000 	   52.9281 
    0.6638 	  104.7990 	    6.0000 	   53.0000 	   52.9721 
    0.8469 	  104.8400 	    6.0000 	   53.0000 	   53.0131 
    0.8621 	  104.8840 	    6.0000 	   53.0000 	   53.0571 
    0.6027 	  104.9250 	    6.0000 	   53.0000 	   53.0981 
    0.7706 	  104.9660 	    6.0000 	   53.0000 	   53.1391 
    0.5264 	  105.0050 	    6.0000 	   53.0000 	   53.1781 
    0.6638 	  105.0470 	    6.0000 	   53.0000 	   53.2201 
    0.7248 	  105.0950 	    6.0000 	   53.0000 	   53.2681 
    0.7706 	  105.1370 	    6.0000 	   53.0000 	   53.3101 
    0.6485 	  105.1820 	    6.0000 	   53.0000 	   53.3551 
    0.5722 	  105.2290 	    6.0000 	   53.0000 	   53.4021 
    0.7248 	  105.2750 	    6.0000 	   53.0000 	   53.4481 
    0.5875 	  105.3200 	    6.0000 	   53.0000 	   53.4931 
    0.6332 	  105.3660 	    6.0000 	   53.0000 	   53.5391 
    0.6180 	  105.4110 	    6.0000 	   53.0000 	   53.5841 
    0.6943 	  105.4560 	    6.0000 	   53.0000 	   53.6291 
    0.7706 	  105.5030 	    6.0000 	   53.0000 	   53.6761 
    0.6790 	  105.5480 	    6.0000 	   53.0000 	   53.7211 
    0.6943 	  105.5910 	    6.0000 	   53.0000 	   53.7641 
    0.6638 	  105.6350 	    6.0000 	   53.0000 	   53.8081 
    0.6943 	  105.6780 	    6.0000 	   53.0000 	   53.8511 
    0.5570 	  105.7200 	    6.0000 	   53.0000 	   53.8931 
    0.7706 	  105.7650 	    6.0000 	   53.0000 	   53.9381 
    0.6790 	  105.8070 	    6.0000 	   53.0000 	   53.9801 
    0.6943 	  105.8490 	    6.0000 	   53.0000 	   54.0221 
    0.7553 	  105.8970 	    6.0000 	   53.0000 	   54.0701 
    0.7401 	  105.9370 	    6.0000 	   53.0000 	   54.1101 
    0.7401 	  105.9800 	    6.0000 	   53.0000 	   54.1531 
    0.7401 	  106.0240 	    6.0000 	   53.0000 	   54.1971 
    0.6790 	  106.0680 	    6.0000 	   53.0000 	   54.2411 
    0.6332 	  106.1100 	    6.0000 	   53.0000 	   54.2831 
    0.8011 	  106.1510 	    6.0000 	   53.0000 	   54.3241 
    0.7401 	  106.1940 	    6.0000 	   53.0000 	   54.3671 
