Thayer School of Engineering        Instron 4442 Mechanical Testing System
7/5/2018 11:54:19 PM

  Force (N)	Extension (mm)	Not Used	Not Used	Not Used	     Hour	    Minute	    Second
    0.8011 	    0.5130 	   23.0000 	   55.0000 	   24.6322 
    0.8469 	    0.5260 	   23.0000 	   55.0000 	   24.6582 
    0.8774 	    0.5580 	   23.0000 	   55.0000 	   24.7222 
    0.7706 	    0.5860 	   23.0000 	   55.0000 	   24.7782 
    0.7401 	    0.5995 	   23.0000 	   55.0000 	   24.8052 
    0.7706 	    0.6280 	   23.0000 	   55.0000 	   24.8622 
    0.6332 	    0.6440 	   23.0000 	   55.0000 	   24.8942 
    0.7553 	    0.6610 	   23.0000 	   55.0000 	   24.9282 
    0.7858 	    0.6905 	   23.0000 	   55.0000 	   24.9872 
    0.6027 	    0.7180 	   23.0000 	   55.0000 	   25.0422 
    0.6790 	    0.7450 	   23.0000 	   55.0000 	   25.0962 
    0.6332 	    0.7720 	   23.0000 	   55.0000 	   25.1502 
    0.5264 	    0.7995 	   23.0000 	   55.0000 	   25.2052 
    0.6790 	    0.8275 	   23.0000 	   55.0000 	   25.2612 
    0.7095 	    0.8530 	   23.0000 	   55.0000 	   25.3122 
    0.8469 	    0.8800 	   23.0000 	   55.0000 	   25.3662 
    0.7553 	    0.8950 	   23.0000 	   55.0000 	   25.3962 
    0.8164 	    0.9230 	   23.0000 	   55.0000 	   25.4522 
    0.7095 	    0.9500 	   23.0000 	   55.0000 	   25.5063 
    0.6638 	    0.9750 	   23.0000 	   55.0000 	   25.5563 
    0.6485 	    1.0020 	   23.0000 	   55.0000 	   25.6103 
    0.6790 	    1.0305 	   23.0000 	   55.0000 	   25.6673 
    0.5722 	    1.0450 	   23.0000 	   55.0000 	   25.6963 
    0.6790 	    1.0730 	   23.0000 	   55.0000 	   25.7523 
    0.7706 	    1.0975 	   23.0000 	   55.0000 	   25.8013 
    0.7706 	    1.1225 	   23.0000 	   55.0000 	   25.8513 
    0.6790 	    1.1470 	   23.0000 	   55.0000 	   25.9003 
    0.7706 	    1.1620 	   23.0000 	   55.0000 	   25.9303 
    0.6790 	    1.1895 	   23.0000 	   55.0000 	   25.9853 
    0.6332 	    1.2150 	   23.0000 	   55.0000 	   26.0363 
    0.6790 	    1.2425 	   23.0000 	   55.0000 	   26.0913 
    0.6790 	    1.2675 	   23.0000 	   55.0000 	   26.1413 
    0.7401 	    1.2915 	   23.0000 	   55.0000 	   26.1893 
    0.8011 	    1.3065 	   23.0000 	   55.0000 	   26.2193 
    0.8011 	    1.3350 	   23.0000 	   55.0000 	   26.2763 
    0.8469 	    1.3620 	   23.0000 	   55.0000 	   26.3303 
    0.6485 	    1.3785 	   23.0000 	   55.0000 	   26.3633 
    0.6180 	    1.4075 	   23.0000 	   55.0000 	   26.4213 
    0.6790 	    1.4325 	   23.0000 	   55.0000 	   26.4713 
    0.6485 	    1.4570 	   23.0000 	   55.0000 	   26.5203 
    0.8164 	    1.4810 	   23.0000 	   55.0000 	   26.5683 
    0.7401 	    1.5065 	   23.0000 	   55.0000 	   26.6193 
    0.6943 	    1.5315 	   23.0000 	   55.0000 	   26.6693 
    0.7401 	    1.5555 	   23.0000 	   55.0000 	   26.7173 
    0.7401 	    1.5835 	   23.0000 	   55.0000 	   26.7733 
    0.8469 	    1.5985 	   23.0000 	   55.0000 	   26.8023 
    0.6027 	    1.6125 	   23.0000 	   55.0000 	   26.8313 
    0.6180 	    1.6410 	   23.0000 	   55.0000 	   26.8883 
    0.7858 	    1.6560 	   23.0000 	   55.0000 	   26.9183 
    0.6638 	    1.6720 	   23.0000 	   55.0000 	   26.9503 
    0.7401 	    1.6880 	   23.0000 	   55.0000 	   26.9823 
    0.7553 	    1.7030 	   23.0000 	   55.0000 	   27.0123 
    0.6943 	    1.7200 	   23.0000 	   55.0000 	   27.0463 
    0.7553 	    1.7365 	   23.0000 	   55.0000 	   27.0793 
    0.8316 	    1.7525 	   23.0000 	   55.0000 	   27.1113 
    0.8774 	    1.7690 	   23.0000 	   55.0000 	   27.1443 
    0.8621 	    1.7845 	   23.0000 	   55.0000 	   27.1753 
    0.6943 	    1.8015 	   23.0000 	   55.0000 	   27.2093 
    0.6332 	    1.8165 	   23.0000 	   55.0000 	   27.2393 
    0.7401 	    1.8340 	   23.0000 	   55.0000 	   27.2744 
    0.8164 	    1.8495 	   23.0000 	   55.0000 	   27.3054 
    0.7706 	    1.8660 	   23.0000 	   55.0000 	   27.3384 
    0.7095 	    1.8825 	   23.0000 	   55.0000 	   27.3714 
    0.8621 	    1.8995 	   23.0000 	   55.0000 	   27.4054 
    0.7553 	    1.9165 	   23.0000 	   55.0000 	   27.4394 
    0.7858 	    1.9335 	   23.0000 	   55.0000 	   27.4734 
    0.6638 	    1.9500 	   23.0000 	   55.0000 	   27.5064 
    0.6943 	    1.9670 	   23.0000 	   55.0000 	   27.5404 
    0.7401 	    1.9835 	   23.0000 	   55.0000 	   27.5734 
    0.8011 	    2.0005 	   23.0000 	   55.0000 	   27.6074 
    0.8011 	    2.0180 	   23.0000 	   55.0000 	   27.6424 
    0.7248 	    2.0345 	   23.0000 	   55.0000 	   27.6754 
    0.7706 	    2.0490 	   23.0000 	   55.0000 	   27.7044 
    0.6790 	    2.0645 	   23.0000 	   55.0000 	   27.7354 
    0.7706 	    2.0815 	   23.0000 	   55.0000 	   27.7694 
    0.8011 	    2.0980 	   23.0000 	   55.0000 	   27.8024 
    0.7706 	    2.1145 	   23.0000 	   55.0000 	   27.8354 
    0.7706 	    2.1295 	   23.0000 	   55.0000 	   27.8654 
    0.8469 	    2.1450 	   23.0000 	   55.0000 	   27.8964 
    0.7553 	    2.1615 	   23.0000 	   55.0000 	   27.9294 
    0.7858 	    2.1770 	   23.0000 	   55.0000 	   27.9604 
    0.6943 	    2.1930 	   23.0000 	   55.0000 	   27.9924 
    0.8164 	    2.2075 	   23.0000 	   55.0000 	   28.0214 
    0.7248 	    2.2245 	   23.0000 	   55.0000 	   28.0554 
    0.7706 	    2.2420 	   23.0000 	   55.0000 	   28.0904 
    0.8164 	    2.2595 	   23.0000 	   55.0000 	   28.1254 
    0.8011 	    2.2750 	   23.0000 	   55.0000 	   28.1564 
    0.6790 	    2.2900 	   23.0000 	   55.0000 	   28.1864 
    0.6790 	    2.3055 	   23.0000 	   55.0000 	   28.2174 
    0.8774 	    2.3220 	   23.0000 	   55.0000 	   28.2504 
    0.8469 	    2.3385 	   23.0000 	   55.0000 	   28.2834 
    0.8774 	    2.3550 	   23.0000 	   55.0000 	   28.3164 
    0.6790 	    2.3695 	   23.0000 	   55.0000 	   28.3454 
    0.8164 	    2.3865 	   23.0000 	   55.0000 	   28.3794 
    0.7401 	    2.4035 	   23.0000 	   55.0000 	   28.4134 
    0.6790 	    2.4200 	   23.0000 	   55.0000 	   28.4464 
    0.8164 	    2.4370 	   23.0000 	   55.0000 	   28.4804 
    0.7858 	    2.4530 	   23.0000 	   55.0000 	   28.5124 
    0.8011 	    2.4680 	   23.0000 	   55.0000 	   28.5424 
    0.8164 	    2.4850 	   23.0000 	   55.0000 	   28.5764 
    0.7401 	    2.4995 	   23.0000 	   55.0000 	   28.6054 
    0.6790 	    2.5175 	   23.0000 	   55.0000 	   28.6414 
    0.6943 	    2.5330 	   23.0000 	   55.0000 	   28.6724 
    0.7706 	    2.5505 	   23.0000 	   55.0000 	   28.7074 
    0.7095 	    2.5675 	   23.0000 	   55.0000 	   28.7414 
    0.7401 	    2.5845 	   23.0000 	   55.0000 	   28.7754 
    0.6638 	    2.6000 	   23.0000 	   55.0000 	   28.8064 
    0.7401 	    2.6175 	   23.0000 	   55.0000 	   28.8414 
    0.7248 	    2.6355 	   23.0000 	   55.0000 	   28.8774 
    0.8011 	    2.6500 	   23.0000 	   55.0000 	   28.9064 
    0.7401 	    2.6670 	   23.0000 	   55.0000 	   28.9404 
    0.6943 	    2.6855 	   23.0000 	   55.0000 	   28.9774 
    0.7401 	    2.7005 	   23.0000 	   55.0000 	   29.0075 
    0.7858 	    2.7175 	   23.0000 	   55.0000 	   29.0415 
    0.6485 	    2.7345 	   23.0000 	   55.0000 	   29.0755 
    0.8164 	    2.7505 	   23.0000 	   55.0000 	   29.1075 
    0.6485 	    2.7660 	   23.0000 	   55.0000 	   29.1385 
    0.8316 	    2.7825 	   23.0000 	   55.0000 	   29.1715 
    0.7401 	    2.7980 	   23.0000 	   55.0000 	   29.2025 
    0.8621 	    2.8125 	   23.0000 	   55.0000 	   29.2315 
    0.9384 	    2.8275 	   23.0000 	   55.0000 	   29.2615 
    0.7858 	    2.8445 	   23.0000 	   55.0000 	   29.2955 
    0.9384 	    2.8600 	   23.0000 	   55.0000 	   29.3265 
    0.8927 	    2.8760 	   23.0000 	   55.0000 	   29.3585 
    0.7706 	    2.8925 	   23.0000 	   55.0000 	   29.3915 
    0.8621 	    2.9085 	   23.0000 	   55.0000 	   29.4235 
    0.7248 	    2.9235 	   23.0000 	   55.0000 	   29.4535 
    0.8164 	    2.9405 	   23.0000 	   55.0000 	   29.4875 
    0.7401 	    2.9550 	   23.0000 	   55.0000 	   29.5165 
    0.7706 	    2.9705 	   23.0000 	   55.0000 	   29.5475 
    0.6943 	    2.9865 	   23.0000 	   55.0000 	   29.5795 
    0.8164 	    3.0020 	   23.0000 	   55.0000 	   29.6105 
    0.7706 	    3.0165 	   23.0000 	   55.0000 	   29.6395 
    0.7401 	    3.0325 	   23.0000 	   55.0000 	   29.6715 
    0.7248 	    3.0490 	   23.0000 	   55.0000 	   29.7045 
    0.9079 	    3.0650 	   23.0000 	   55.0000 	   29.7365 
    0.7401 	    3.0805 	   23.0000 	   55.0000 	   29.7675 
    0.7706 	    3.0975 	   23.0000 	   55.0000 	   29.8015 
    0.6485 	    3.1120 	   23.0000 	   55.0000 	   29.8305 
    0.7553 	    3.1270 	   23.0000 	   55.0000 	   29.8605 
    0.6485 	    3.1445 	   23.0000 	   55.0000 	   29.8955 
    0.8011 	    3.1605 	   23.0000 	   55.0000 	   29.9275 
    0.8621 	    3.1755 	   23.0000 	   55.0000 	   29.9575 
    0.8011 	    3.1930 	   23.0000 	   55.0000 	   29.9925 
    0.7858 	    3.2085 	   23.0000 	   55.0000 	   30.0235 
    0.8774 	    3.2230 	   23.0000 	   55.0000 	   30.0525 
    0.9079 	    3.2405 	   23.0000 	   55.0000 	   30.0875 
    0.8164 	    3.2555 	   23.0000 	   55.0000 	   30.1175 
    0.8621 	    3.2710 	   23.0000 	   55.0000 	   30.1485 
    0.7095 	    3.2880 	   23.0000 	   55.0000 	   30.1825 
    0.7706 	    3.3020 	   23.0000 	   55.0000 	   30.2105 
    0.7553 	    3.3165 	   23.0000 	   55.0000 	   30.2395 
    0.7401 	    3.3340 	   23.0000 	   55.0000 	   30.2745 
    0.8164 	    3.3495 	   23.0000 	   55.0000 	   30.3055 
    0.8316 	    3.3645 	   23.0000 	   55.0000 	   30.3355 
    0.6943 	    3.3805 	   23.0000 	   55.0000 	   30.3675 
    0.8164 	    3.3965 	   23.0000 	   55.0000 	   30.3995 
    0.7553 	    3.4115 	   23.0000 	   55.0000 	   30.4295 
    0.6332 	    3.4250 	   23.0000 	   55.0000 	   30.4565 
    0.7706 	    3.4405 	   23.0000 	   55.0000 	   30.4875 
    0.6332 	    3.4555 	   23.0000 	   55.0000 	   30.5175 
    0.8164 	    3.4715 	   23.0000 	   55.0000 	   30.5495 
    0.7858 	    3.4870 	   23.0000 	   55.0000 	   30.5805 
    0.7095 	    3.5000 	   23.0000 	   55.0000 	   30.6065 
    0.7401 	    3.5135 	   23.0000 	   55.0000 	   30.6335 
    0.6638 	    3.5285 	   23.0000 	   55.0000 	   30.6635 
    0.7553 	    3.5420 	   23.0000 	   55.0000 	   30.6905 
    0.7095 	    3.5565 	   23.0000 	   55.0000 	   30.7195 
    0.8469 	    3.5710 	   23.0000 	   55.0000 	   30.7486 
    0.6332 	    3.5860 	   23.0000 	   55.0000 	   30.7786 
    0.8316 	    3.6005 	   23.0000 	   55.0000 	   30.8066 
    0.8164 	    3.6150 	   23.0000 	   55.0000 	   30.8366 
    0.8621 	    3.6310 	   23.0000 	   55.0000 	   30.8686 
    0.7553 	    3.6460 	   23.0000 	   55.0000 	   30.8986 
    0.8011 	    3.6600 	   23.0000 	   55.0000 	   30.9266 
    0.8316 	    3.6750 	   23.0000 	   55.0000 	   30.9566 
    0.7095 	    3.6930 	   23.0000 	   55.0000 	   30.9926 
    0.7401 	    3.7075 	   23.0000 	   55.0000 	   31.0216 
    0.7248 	    3.7225 	   23.0000 	   55.0000 	   31.0516 
    0.7858 	    3.7400 	   23.0000 	   55.0000 	   31.0866 
    0.8621 	    3.7540 	   23.0000 	   55.0000 	   31.1146 
    0.6943 	    3.7680 	   23.0000 	   55.0000 	   31.1426 
    0.7858 	    3.7840 	   23.0000 	   55.0000 	   31.1746 
    0.8011 	    3.7995 	   23.0000 	   55.0000 	   31.2056 
    0.7553 	    3.8130 	   23.0000 	   55.0000 	   31.2326 
    0.6027 	    3.8270 	   23.0000 	   55.0000 	   31.2606 
    0.8469 	    3.8425 	   23.0000 	   55.0000 	   31.2916 
    0.7401 	    3.8565 	   23.0000 	   55.0000 	   31.3196 
    0.6943 	    3.8705 	   23.0000 	   55.0000 	   31.3476 
    0.7706 	    3.8860 	   23.0000 	   55.0000 	   31.3786 
    0.8164 	    3.9000 	   23.0000 	   55.0000 	   31.4066 
    0.5875 	    3.9135 	   23.0000 	   55.0000 	   31.4336 
    0.8774 	    3.9280 	   23.0000 	   55.0000 	   31.4626 
    0.6943 	    3.9430 	   23.0000 	   55.0000 	   31.4926 
    0.8774 	    3.9605 	   23.0000 	   55.0000 	   31.5276 
    0.8774 	    3.9860 	   23.0000 	   55.0000 	   31.5786 
    0.8316 	    4.0000 	   23.0000 	   55.0000 	   31.6066 
    0.8774 	    4.0140 	   23.0000 	   55.0000 	   31.6346 
    0.6790 	    4.0280 	   23.0000 	   55.0000 	   31.6626 
    0.7553 	    4.0425 	   23.0000 	   55.0000 	   31.6916 
    0.8011 	    4.0570 	   23.0000 	   55.0000 	   31.7206 
    0.8316 	    4.0705 	   23.0000 	   55.0000 	   31.7476 
    0.7401 	    4.0840 	   23.0000 	   55.0000 	   31.7746 
    0.7095 	    4.0980 	   23.0000 	   55.0000 	   31.8016 
    0.8011 	    4.1115 	   23.0000 	   55.0000 	   31.8296 
    0.6943 	    4.1250 	   23.0000 	   55.0000 	   31.8566 
    0.7401 	    4.1410 	   23.0000 	   55.0000 	   31.8886 
    0.7706 	    4.1550 	   23.0000 	   55.0000 	   31.9166 
    0.8774 	    4.1685 	   23.0000 	   55.0000 	   31.9436 
    0.7858 	    4.1825 	   23.0000 	   55.0000 	   31.9716 
    0.6943 	    4.1965 	   23.0000 	   55.0000 	   31.9996 
    0.7553 	    4.2100 	   23.0000 	   55.0000 	   32.0266 
    0.7248 	    4.2235 	   23.0000 	   55.0000 	   32.0536 
    0.8164 	    4.2400 	   23.0000 	   55.0000 	   32.0866 
    0.8164 	    4.2540 	   23.0000 	   55.0000 	   32.1146 
    0.8927 	    4.2680 	   23.0000 	   55.0000 	   32.1426 
    0.7553 	    4.2825 	   23.0000 	   55.0000 	   32.1716 
    0.7553 	    4.2970 	   23.0000 	   55.0000 	   32.2006 
    0.9232 	    4.3110 	   23.0000 	   55.0000 	   32.2286 
    0.7706 	    4.3250 	   23.0000 	   55.0000 	   32.2566 
    0.8621 	    4.3420 	   23.0000 	   55.0000 	   32.2906 
    0.7553 	    4.3560 	   23.0000 	   55.0000 	   32.3186 
    0.8316 	    4.3700 	   23.0000 	   55.0000 	   32.3456 
    0.5264 	    4.3840 	   23.0000 	   55.0000 	   32.3746 
    0.7248 	    4.3980 	   23.0000 	   55.0000 	   32.4026 
    0.7858 	    4.4130 	   23.0000 	   55.0000 	   32.4326 
    0.8011 	    4.4275 	   23.0000 	   55.0000 	   32.4616 
    0.7095 	    4.4425 	   23.0000 	   55.0000 	   32.4916 
    0.7553 	    4.4580 	   23.0000 	   55.0000 	   32.5227 
    0.7858 	    4.4725 	   23.0000 	   55.0000 	   32.5517 
    0.8469 	    4.4875 	   23.0000 	   55.0000 	   32.5817 
    0.7553 	    4.5020 	   23.0000 	   55.0000 	   32.6107 
    0.8927 	    4.5175 	   23.0000 	   55.0000 	   32.6417 
    0.7706 	    4.5330 	   23.0000 	   55.0000 	   32.6727 
    0.9232 	    4.5470 	   23.0000 	   55.0000 	   32.7007 
    0.7706 	    4.5610 	   23.0000 	   55.0000 	   32.7287 
    0.7858 	    4.5745 	   23.0000 	   55.0000 	   32.7557 
    0.9232 	    4.5880 	   23.0000 	   55.0000 	   32.7827 
    0.7095 	    4.6015 	   23.0000 	   55.0000 	   32.8097 
    0.8621 	    4.6160 	   23.0000 	   55.0000 	   32.8387 
    0.7401 	    4.6320 	   23.0000 	   55.0000 	   32.8707 
    0.8164 	    4.6450 	   23.0000 	   55.0000 	   32.8967 
    0.6943 	    4.6590 	   23.0000 	   55.0000 	   32.9247 
    0.7706 	    4.6725 	   23.0000 	   55.0000 	   32.9517 
    0.9232 	    4.6880 	   23.0000 	   55.0000 	   32.9827 
    0.7706 	    4.7010 	   23.0000 	   55.0000 	   33.0087 
    0.5112 	    4.7140 	   23.0000 	   55.0000 	   33.0347 
    0.7706 	    4.7295 	   23.0000 	   55.0000 	   33.0657 
    0.7401 	    4.7445 	   23.0000 	   55.0000 	   33.0957 
    0.8164 	    4.7595 	   23.0000 	   55.0000 	   33.1257 
    0.7553 	    4.7765 	   23.0000 	   55.0000 	   33.1597 
    0.8469 	    4.7925 	   23.0000 	   55.0000 	   33.1917 
    0.7553 	    4.8095 	   23.0000 	   55.0000 	   33.2257 
    0.8316 	    4.8260 	   23.0000 	   55.0000 	   33.2587 
    0.8011 	    4.8435 	   23.0000 	   55.0000 	   33.2937 
    0.8011 	    4.8590 	   23.0000 	   55.0000 	   33.3247 
    0.7095 	    4.8750 	   23.0000 	   55.0000 	   33.3567 
    0.8927 	    4.8920 	   23.0000 	   55.0000 	   33.3907 
    0.6638 	    4.9075 	   23.0000 	   55.0000 	   33.4217 
    0.6943 	    4.9235 	   23.0000 	   55.0000 	   33.4537 
    0.6943 	    4.9415 	   23.0000 	   55.0000 	   33.4897 
    0.8164 	    4.9575 	   23.0000 	   55.0000 	   33.5217 
    0.8011 	    4.9735 	   23.0000 	   55.0000 	   33.5537 
    0.8164 	    4.9885 	   23.0000 	   55.0000 	   33.5837 
    0.8621 	    5.0060 	   23.0000 	   55.0000 	   33.6187 
    0.8011 	    5.0220 	   23.0000 	   55.0000 	   33.6507 
    0.8927 	    5.0395 	   23.0000 	   55.0000 	   33.6857 
    0.8164 	    5.0545 	   23.0000 	   55.0000 	   33.7157 
    0.7553 	    5.0710 	   23.0000 	   55.0000 	   33.7487 
    0.8011 	    5.0855 	   23.0000 	   55.0000 	   33.7777 
    0.6790 	    5.1005 	   23.0000 	   55.0000 	   33.8077 
    0.9232 	    5.1145 	   23.0000 	   55.0000 	   33.8357 
    0.6638 	    5.1310 	   23.0000 	   55.0000 	   33.8687 
    0.6943 	    5.1480 	   23.0000 	   55.0000 	   33.9027 
    0.8774 	    5.1635 	   23.0000 	   55.0000 	   33.9337 
    0.8469 	    5.1770 	   23.0000 	   55.0000 	   33.9607 
    0.7553 	    5.1915 	   23.0000 	   55.0000 	   33.9897 
    0.7858 	    5.2045 	   23.0000 	   55.0000 	   34.0157 
    0.8316 	    5.2180 	   23.0000 	   55.0000 	   34.0427 
    0.9079 	    5.2345 	   23.0000 	   55.0000 	   34.0757 
    0.8164 	    5.2510 	   23.0000 	   55.0000 	   34.1087 
    0.9232 	    5.2675 	   23.0000 	   55.0000 	   34.1417 
    0.6943 	    5.2825 	   23.0000 	   55.0000 	   34.1717 
    0.9537 	    5.2985 	   23.0000 	   55.0000 	   34.2038 
    0.8316 	    5.3150 	   23.0000 	   55.0000 	   34.2368 
    0.8164 	    5.3305 	   23.0000 	   55.0000 	   34.2678 
    0.7858 	    5.3485 	   23.0000 	   55.0000 	   34.3038 
    0.8316 	    5.3645 	   23.0000 	   55.0000 	   34.3358 
    0.6943 	    5.3805 	   23.0000 	   55.0000 	   34.3678 
    0.8316 	    5.3975 	   23.0000 	   55.0000 	   34.4018 
    0.6943 	    5.4130 	   23.0000 	   55.0000 	   34.4328 
    0.9232 	    5.4285 	   23.0000 	   55.0000 	   34.4638 
    0.7706 	    5.4440 	   23.0000 	   55.0000 	   34.4948 
    0.8621 	    5.4605 	   23.0000 	   55.0000 	   34.5278 
    0.8316 	    5.4770 	   23.0000 	   55.0000 	   34.5608 
    0.8469 	    5.4925 	   23.0000 	   55.0000 	   34.5918 
    0.6332 	    5.5090 	   23.0000 	   55.0000 	   34.6248 
    0.8621 	    5.5265 	   23.0000 	   55.0000 	   34.6598 
    0.8011 	    5.5455 	   23.0000 	   55.0000 	   34.6978 
    0.7553 	    5.5620 	   23.0000 	   55.0000 	   34.7308 
    0.8011 	    5.5780 	   23.0000 	   55.0000 	   34.7628 
    0.6943 	    5.5925 	   23.0000 	   55.0000 	   34.7918 
    0.8621 	    5.6080 	   23.0000 	   55.0000 	   34.8228 
    0.8621 	    5.6225 	   23.0000 	   55.0000 	   34.8518 
    0.6790 	    5.6390 	   23.0000 	   55.0000 	   34.8848 
    0.7401 	    5.6540 	   23.0000 	   55.0000 	   34.9148 
    0.8621 	    5.6675 	   23.0000 	   55.0000 	   34.9418 
    0.7553 	    5.6825 	   23.0000 	   55.0000 	   34.9718 
    0.8774 	    5.6960 	   23.0000 	   55.0000 	   34.9988 
    0.8774 	    5.7090 	   23.0000 	   55.0000 	   35.0248 
    0.6943 	    5.7225 	   23.0000 	   55.0000 	   35.0518 
    0.8011 	    5.7385 	   23.0000 	   55.0000 	   35.0838 
    0.8621 	    5.7535 	   23.0000 	   55.0000 	   35.1138 
    0.7553 	    5.7700 	   23.0000 	   55.0000 	   35.1468 
    0.8469 	    5.7865 	   23.0000 	   55.0000 	   35.1798 
    0.7553 	    5.8015 	   23.0000 	   55.0000 	   35.2098 
    0.7553 	    5.8170 	   23.0000 	   55.0000 	   35.2408 
    0.7858 	    5.8345 	   23.0000 	   55.0000 	   35.2758 
    0.7706 	    5.8505 	   23.0000 	   55.0000 	   35.3078 
    0.8927 	    5.8670 	   23.0000 	   55.0000 	   35.3408 
    0.8011 	    5.8835 	   23.0000 	   55.0000 	   35.3738 
    0.8774 	    5.8995 	   23.0000 	   55.0000 	   35.4058 
    0.8011 	    5.9150 	   23.0000 	   55.0000 	   35.4368 
    0.7706 	    5.9315 	   23.0000 	   55.0000 	   35.4698 
    0.6790 	    5.9500 	   23.0000 	   55.0000 	   35.5068 
    0.7858 	    5.9670 	   23.0000 	   55.0000 	   35.5408 
    0.8621 	    5.9835 	   23.0000 	   55.0000 	   35.5738 
    0.8011 	    5.9985 	   23.0000 	   55.0000 	   35.6038 
    0.8469 	    6.0150 	   23.0000 	   55.0000 	   35.6368 
    0.9842 	    6.0300 	   23.0000 	   55.0000 	   35.6668 
    0.7858 	    6.0475 	   23.0000 	   55.0000 	   35.7018 
    0.8927 	    6.0865 	   23.0000 	   55.0000 	   35.7798 
    0.8621 	    6.1040 	   23.0000 	   55.0000 	   35.8148 
    0.8316 	    6.1180 	   23.0000 	   55.0000 	   35.8428 
    0.8774 	    6.1335 	   23.0000 	   55.0000 	   35.8738 
    0.8621 	    6.1475 	   23.0000 	   55.0000 	   35.9018 
    0.7248 	    6.1615 	   23.0000 	   55.0000 	   35.9298 
    0.8774 	    6.1755 	   23.0000 	   55.0000 	   35.9578 
    0.7858 	    6.1895 	   23.0000 	   55.0000 	   35.9859 
    0.8927 	    6.2045 	   23.0000 	   55.0000 	   36.0159 
    0.8316 	    6.2185 	   23.0000 	   55.0000 	   36.0439 
    0.8164 	    6.2350 	   23.0000 	   55.0000 	   36.0769 
    0.8774 	    6.2485 	   23.0000 	   55.0000 	   36.1039 
    0.8316 	    6.2625 	   23.0000 	   55.0000 	   36.1319 
    0.7248 	    6.2765 	   23.0000 	   55.0000 	   36.1599 
    0.9079 	    6.2905 	   23.0000 	   55.0000 	   36.1879 
    0.9384 	    6.3055 	   23.0000 	   55.0000 	   36.2179 
    0.7095 	    6.3195 	   23.0000 	   55.0000 	   36.2459 
    0.8011 	    6.3335 	   23.0000 	   55.0000 	   36.2739 
    0.8621 	    6.3475 	   23.0000 	   55.0000 	   36.3019 
    0.8621 	    6.3615 	   23.0000 	   55.0000 	   36.3299 
    0.7553 	    6.3765 	   23.0000 	   55.0000 	   36.3589 
    0.8927 	    6.3900 	   23.0000 	   55.0000 	   36.3859 
    0.8927 	    6.4045 	   23.0000 	   55.0000 	   36.4149 
    0.7553 	    6.4185 	   23.0000 	   55.0000 	   36.4429 
    0.7248 	    6.4335 	   23.0000 	   55.0000 	   36.4729 
    0.7706 	    6.4475 	   23.0000 	   55.0000 	   36.5009 
    0.6943 	    6.4610 	   23.0000 	   55.0000 	   36.5279 
    0.8011 	    6.4755 	   23.0000 	   55.0000 	   36.5569 
    0.8011 	    6.4895 	   23.0000 	   55.0000 	   36.5849 
    0.8774 	    6.5035 	   23.0000 	   55.0000 	   36.6129 
    0.8774 	    6.5180 	   23.0000 	   55.0000 	   36.6419 
    0.8316 	    6.5320 	   23.0000 	   55.0000 	   36.6699 
    0.8316 	    6.5460 	   23.0000 	   55.0000 	   36.6979 
    0.7248 	    6.5620 	   23.0000 	   55.0000 	   36.7299 
    0.8774 	    6.5765 	   23.0000 	   55.0000 	   36.7589 
    0.6790 	    6.5905 	   23.0000 	   55.0000 	   36.7869 
    0.8164 	    6.6060 	   23.0000 	   55.0000 	   36.8179 
    0.9384 	    6.6210 	   23.0000 	   55.0000 	   36.8479 
    0.7858 	    6.6380 	   23.0000 	   55.0000 	   36.8819 
    0.9384 	    6.6525 	   23.0000 	   55.0000 	   36.9109 
    0.8164 	    6.6665 	   23.0000 	   55.0000 	   36.9389 
    0.7248 	    6.6810 	   23.0000 	   55.0000 	   36.9679 
    0.7248 	    6.6955 	   23.0000 	   55.0000 	   36.9969 
    0.8011 	    6.7090 	   23.0000 	   55.0000 	   37.0239 
    0.9384 	    6.7225 	   23.0000 	   55.0000 	   37.0509 
    0.7401 	    6.7370 	   23.0000 	   55.0000 	   37.0799 
    0.8316 	    6.7515 	   23.0000 	   55.0000 	   37.1089 
    0.8011 	    6.7655 	   23.0000 	   55.0000 	   37.1369 
    0.7095 	    6.7805 	   23.0000 	   55.0000 	   37.1669 
    0.8011 	    6.7960 	   23.0000 	   55.0000 	   37.1979 
    0.8927 	    6.8130 	   23.0000 	   55.0000 	   37.2319 
    0.9384 	    6.8300 	   23.0000 	   55.0000 	   37.2659 
    0.9232 	    6.8470 	   23.0000 	   55.0000 	   37.2999 
    0.7553 	    6.8635 	   23.0000 	   55.0000 	   37.3329 
    0.6943 	    6.8790 	   23.0000 	   55.0000 	   37.3639 
    1.0605 	    6.8960 	   23.0000 	   55.0000 	   37.3979 
    0.8011 	    6.9120 	   23.0000 	   55.0000 	   37.4299 
    0.9232 	    6.9300 	   23.0000 	   55.0000 	   37.4659 
    0.7706 	    6.9465 	   23.0000 	   55.0000 	   37.4989 
    0.9689 	    6.9625 	   23.0000 	   55.0000 	   37.5309 
    0.8621 	    6.9790 	   23.0000 	   55.0000 	   37.5639 
    0.8316 	    6.9955 	   23.0000 	   55.0000 	   37.5969 
    0.8011 	    7.0115 	   23.0000 	   55.0000 	   37.6289 
    0.8316 	    7.0280 	   23.0000 	   55.0000 	   37.6619 
    0.9384 	    7.0450 	   23.0000 	   55.0000 	   37.6959 
    0.9079 	    7.0610 	   23.0000 	   55.0000 	   37.7280 
    0.8774 	    7.0770 	   23.0000 	   55.0000 	   37.7600 
    0.5570 	    7.0925 	   23.0000 	   55.0000 	   37.7910 
    0.8774 	    7.1070 	   23.0000 	   55.0000 	   37.8200 
    0.8011 	    7.1230 	   23.0000 	   55.0000 	   37.8520 
    0.8621 	    7.1380 	   23.0000 	   55.0000 	   37.8820 
    0.8774 	    7.1540 	   23.0000 	   55.0000 	   37.9140 
    0.8621 	    7.1690 	   23.0000 	   55.0000 	   37.9440 
    0.4959 	    7.1845 	   23.0000 	   55.0000 	   37.9750 
    0.7553 	    7.2000 	   23.0000 	   55.0000 	   38.0060 
    1.0147 	    7.2150 	   23.0000 	   55.0000 	   38.0360 
    0.8164 	    7.2315 	   23.0000 	   55.0000 	   38.0690 
    0.8164 	    7.2465 	   23.0000 	   55.0000 	   38.0990 
    0.8011 	    7.2625 	   23.0000 	   55.0000 	   38.1310 
    0.8316 	    7.2785 	   23.0000 	   55.0000 	   38.1630 
    0.8469 	    7.2950 	   23.0000 	   55.0000 	   38.1960 
    1.1215 	    7.3115 	   23.0000 	   55.0000 	   38.2290 
    0.7553 	    7.3275 	   23.0000 	   55.0000 	   38.2610 
    0.7553 	    7.3455 	   23.0000 	   55.0000 	   38.2970 
    0.8316 	    7.3625 	   23.0000 	   55.0000 	   38.3310 
    0.7706 	    7.3790 	   23.0000 	   55.0000 	   38.3640 
    0.8316 	    7.3960 	   23.0000 	   55.0000 	   38.3980 
    0.7553 	    7.4130 	   23.0000 	   55.0000 	   38.4320 
    0.7401 	    7.4305 	   23.0000 	   55.0000 	   38.4670 
    0.8774 	    7.4485 	   23.0000 	   55.0000 	   38.5030 
    0.6943 	    7.4655 	   23.0000 	   55.0000 	   38.5370 
    0.8011 	    7.4825 	   23.0000 	   55.0000 	   38.5710 
    0.8774 	    7.4985 	   23.0000 	   55.0000 	   38.6030 
    0.8621 	    7.5155 	   23.0000 	   55.0000 	   38.6370 
    0.8164 	    7.5325 	   23.0000 	   55.0000 	   38.6700 
    0.8164 	    7.5490 	   23.0000 	   55.0000 	   38.7040 
    0.8927 	    7.5665 	   23.0000 	   55.0000 	   38.7390 
    0.9079 	    7.5815 	   23.0000 	   55.0000 	   38.7690 
    0.9384 	    7.5965 	   23.0000 	   55.0000 	   38.7990 
    0.8774 	    7.6115 	   23.0000 	   55.0000 	   38.8290 
    0.9079 	    7.6260 	   23.0000 	   55.0000 	   38.8580 
    0.7553 	    7.6420 	   23.0000 	   55.0000 	   38.8900 
    0.7248 	    7.6570 	   23.0000 	   55.0000 	   38.9200 
    0.8774 	    7.6710 	   23.0000 	   55.0000 	   38.9480 
    0.8621 	    7.6865 	   23.0000 	   55.0000 	   38.9790 
    0.8469 	    7.7020 	   23.0000 	   55.0000 	   39.0100 
    0.7553 	    7.7160 	   23.0000 	   55.0000 	   39.0380 
    0.9384 	    7.7300 	   23.0000 	   55.0000 	   39.0660 
    0.8621 	    7.7455 	   23.0000 	   55.0000 	   39.0970 
    0.7706 	    7.7620 	   23.0000 	   55.0000 	   39.1300 
    0.9232 	    7.7785 	   23.0000 	   55.0000 	   39.1630 
    0.8469 	    7.7950 	   23.0000 	   55.0000 	   39.1960 
    0.7401 	    7.8110 	   23.0000 	   55.0000 	   39.2280 
    0.9232 	    7.8265 	   23.0000 	   55.0000 	   39.2590 
    0.7553 	    7.8455 	   23.0000 	   55.0000 	   39.2970 
    0.8774 	    7.8620 	   23.0000 	   55.0000 	   39.3300 
    0.5264 	    7.8790 	   23.0000 	   55.0000 	   39.3640 
    0.8774 	    7.8960 	   23.0000 	   55.0000 	   39.3980 
    0.9079 	    7.9130 	   23.0000 	   55.0000 	   39.4320 
    0.8774 	    7.9295 	   23.0000 	   55.0000 	   39.4650 
    0.8164 	    7.9465 	   23.0000 	   55.0000 	   39.4991 
    0.8621 	    7.9630 	   23.0000 	   55.0000 	   39.5321 
    0.7706 	    7.9795 	   23.0000 	   55.0000 	   39.5651 
    0.8164 	    7.9955 	   23.0000 	   55.0000 	   39.5971 
    0.6180 	    8.0115 	   23.0000 	   55.0000 	   39.6291 
    0.9079 	    8.0290 	   23.0000 	   55.0000 	   39.6641 
    0.7095 	    8.0460 	   23.0000 	   55.0000 	   39.6981 
    0.8011 	    8.0630 	   23.0000 	   55.0000 	   39.7321 
    0.5875 	    8.0800 	   23.0000 	   55.0000 	   39.7661 
    0.9842 	    8.0960 	   23.0000 	   55.0000 	   39.7981 
    1.1368 	    8.1110 	   23.0000 	   55.0000 	   39.8281 
    0.7553 	    8.1265 	   23.0000 	   55.0000 	   39.8591 
    0.7553 	    8.1405 	   23.0000 	   55.0000 	   39.8871 
    0.8469 	    8.1545 	   23.0000 	   55.0000 	   39.9151 
    0.8316 	    8.1695 	   23.0000 	   55.0000 	   39.9451 
    0.7248 	    8.1840 	   23.0000 	   55.0000 	   39.9741 
    1.0452 	    8.1985 	   23.0000 	   55.0000 	   40.0031 
    1.0300 	    8.2135 	   23.0000 	   55.0000 	   40.0331 
    0.9842 	    8.2270 	   23.0000 	   55.0000 	   40.0601 
    0.9384 	    8.2415 	   23.0000 	   55.0000 	   40.0891 
    0.8011 	    8.2555 	   23.0000 	   55.0000 	   40.1161 
    0.7553 	    8.2690 	   23.0000 	   55.0000 	   40.1441 
    0.8164 	    8.2835 	   23.0000 	   55.0000 	   40.1731 
    0.8011 	    8.2995 	   23.0000 	   55.0000 	   40.2051 
    0.7401 	    8.3150 	   23.0000 	   55.0000 	   40.2361 
    0.9079 	    8.3315 	   23.0000 	   55.0000 	   40.2691 
    0.8011 	    8.3485 	   23.0000 	   55.0000 	   40.3031 
    0.8011 	    8.3660 	   23.0000 	   55.0000 	   40.3381 
    0.8316 	    8.3820 	   23.0000 	   55.0000 	   40.3701 
    0.8774 	    8.3985 	   23.0000 	   55.0000 	   40.4031 
    0.8774 	    8.4155 	   23.0000 	   55.0000 	   40.4371 
    0.8621 	    8.4315 	   23.0000 	   55.0000 	   40.4681 
    0.8621 	    8.4495 	   23.0000 	   55.0000 	   40.5051 
    0.8469 	    8.4660 	   23.0000 	   55.0000 	   40.5381 
    0.8011 	    8.4810 	   23.0000 	   55.0000 	   40.5681 
    0.8621 	    8.4975 	   23.0000 	   55.0000 	   40.6011 
    0.9537 	    8.5125 	   23.0000 	   55.0000 	   40.6311 
    0.8011 	    8.5310 	   23.0000 	   55.0000 	   40.6681 
    0.8621 	    8.5475 	   23.0000 	   55.0000 	   40.7011 
    0.9384 	    8.5650 	   23.0000 	   55.0000 	   40.7361 
    0.8927 	    8.5815 	   23.0000 	   55.0000 	   40.7691 
    0.8164 	    8.5965 	   23.0000 	   55.0000 	   40.7991 
    1.0147 	    8.6135 	   23.0000 	   55.0000 	   40.8331 
    0.9384 	    8.6295 	   23.0000 	   55.0000 	   40.8651 
    0.9537 	    8.6480 	   23.0000 	   55.0000 	   40.9021 
    0.7248 	    8.6640 	   23.0000 	   55.0000 	   40.9341 
    0.9842 	    8.6805 	   23.0000 	   55.0000 	   40.9671 
    0.8164 	    8.6960 	   23.0000 	   55.0000 	   40.9981 
    0.8927 	    8.7125 	   23.0000 	   55.0000 	   41.0311 
    0.8011 	    8.7275 	   23.0000 	   55.0000 	   41.0611 
    0.9689 	    8.7415 	   23.0000 	   55.0000 	   41.0891 
    0.8927 	    8.7570 	   23.0000 	   55.0000 	   41.1201 
    0.8621 	    8.7725 	   23.0000 	   55.0000 	   41.1511 
    0.8621 	    8.7885 	   23.0000 	   55.0000 	   41.1831 
    0.8774 	    8.8040 	   23.0000 	   55.0000 	   41.2141 
    0.8927 	    8.8210 	   23.0000 	   55.0000 	   41.2481 
    0.8927 	    8.8380 	   23.0000 	   55.0000 	   41.2822 
    0.8774 	    8.8555 	   23.0000 	   55.0000 	   41.3172 
    0.7858 	    8.8725 	   23.0000 	   55.0000 	   41.3512 
    0.9079 	    8.8890 	   23.0000 	   55.0000 	   41.3842 
    0.8621 	    8.9060 	   23.0000 	   55.0000 	   41.4182 
    0.9689 	    8.9225 	   23.0000 	   55.0000 	   41.4512 
    0.8774 	    8.9390 	   23.0000 	   55.0000 	   41.4842 
    0.9537 	    8.9555 	   23.0000 	   55.0000 	   41.5162 
    0.9689 	    8.9715 	   23.0000 	   55.0000 	   41.5492 
    0.8621 	    8.9890 	   23.0000 	   55.0000 	   41.5842 
    0.9079 	    9.0060 	   23.0000 	   55.0000 	   41.6182 
    0.6485 	    9.0230 	   23.0000 	   55.0000 	   41.6522 
    0.9537 	    9.0405 	   23.0000 	   55.0000 	   41.6872 
    0.8316 	    9.0575 	   23.0000 	   55.0000 	   41.7212 
    0.6485 	    9.0740 	   23.0000 	   55.0000 	   41.7532 
    0.8774 	    9.0905 	   23.0000 	   55.0000 	   41.7872 
    0.8621 	    9.1050 	   23.0000 	   55.0000 	   41.8162 
    0.9689 	    9.1210 	   23.0000 	   55.0000 	   41.8482 
    0.9232 	    9.1380 	   23.0000 	   55.0000 	   41.8822 
    0.6485 	    9.1535 	   23.0000 	   55.0000 	   41.9132 
    1.0300 	    9.1695 	   23.0000 	   55.0000 	   41.9452 
    0.8164 	    9.1850 	   23.0000 	   55.0000 	   41.9762 
    0.8621 	    9.2015 	   23.0000 	   55.0000 	   42.0092 
    0.8621 	    9.2175 	   23.0000 	   55.0000 	   42.0412 
    0.8774 	    9.2335 	   23.0000 	   55.0000 	   42.0732 
    0.7706 	    9.2480 	   23.0000 	   55.0000 	   42.1022 
    0.7401 	    9.2630 	   23.0000 	   55.0000 	   42.1322 
    0.8164 	    9.2795 	   23.0000 	   55.0000 	   42.1652 
    0.8316 	    9.2960 	   23.0000 	   55.0000 	   42.1982 
    0.8774 	    9.3120 	   23.0000 	   55.0000 	   42.2302 
    0.8316 	    9.3275 	   23.0000 	   55.0000 	   42.2612 
    0.8316 	    9.3435 	   23.0000 	   55.0000 	   42.2932 
    0.8469 	    9.3600 	   23.0000 	   55.0000 	   42.3262 
    0.7858 	    9.3750 	   23.0000 	   55.0000 	   42.3562 
    0.7553 	    9.3905 	   23.0000 	   55.0000 	   42.3872 
    0.9384 	    9.4075 	   23.0000 	   55.0000 	   42.4212 
    0.9995 	    9.4235 	   23.0000 	   55.0000 	   42.4532 
    0.9079 	    9.4420 	   23.0000 	   55.0000 	   42.4902 
    0.9232 	    9.4590 	   23.0000 	   55.0000 	   42.5242 
    0.6638 	    9.4755 	   23.0000 	   55.0000 	   42.5572 
    0.6638 	    9.4920 	   23.0000 	   55.0000 	   42.5902 
    0.7706 	    9.5085 	   23.0000 	   55.0000 	   42.6232 
    0.8774 	    9.5255 	   23.0000 	   55.0000 	   42.6572 
    0.9995 	    9.5415 	   23.0000 	   55.0000 	   42.6892 
    0.9842 	    9.5585 	   23.0000 	   55.0000 	   42.7232 
    0.5264 	    9.5750 	   23.0000 	   55.0000 	   42.7562 
    0.9537 	    9.5915 	   23.0000 	   55.0000 	   42.7892 
    0.9079 	    9.6075 	   23.0000 	   55.0000 	   42.8212 
    0.9995 	    9.6235 	   23.0000 	   55.0000 	   42.8532 
    0.8164 	    9.6410 	   23.0000 	   55.0000 	   42.8882 
    0.5722 	    9.6565 	   23.0000 	   55.0000 	   42.9192 
    0.8316 	    9.6730 	   23.0000 	   55.0000 	   42.9522 
    0.9079 	    9.6890 	   23.0000 	   55.0000 	   42.9843 
    0.9842 	    9.7055 	   23.0000 	   55.0000 	   43.0173 
    1.0147 	    9.7205 	   23.0000 	   55.0000 	   43.0473 
    0.8774 	    9.7360 	   23.0000 	   55.0000 	   43.0783 
    0.8774 	    9.7520 	   23.0000 	   55.0000 	   43.1103 
    0.9842 	    9.7690 	   23.0000 	   55.0000 	   43.1443 
    0.7553 	    9.7870 	   23.0000 	   55.0000 	   43.1803 
    0.8927 	    9.8035 	   23.0000 	   55.0000 	   43.2133 
    0.8621 	    9.8200 	   23.0000 	   55.0000 	   43.2463 
    0.5570 	    9.8400 	   23.0000 	   55.0000 	   43.2863 
    0.8164 	    9.8565 	   23.0000 	   55.0000 	   43.3193 
    0.8927 	    9.8730 	   23.0000 	   55.0000 	   43.3523 
    0.8774 	    9.8900 	   23.0000 	   55.0000 	   43.3863 
    0.8164 	    9.9065 	   23.0000 	   55.0000 	   43.4193 
    0.9384 	    9.9235 	   23.0000 	   55.0000 	   43.4533 
    0.8011 	    9.9405 	   23.0000 	   55.0000 	   43.4873 
    0.7706 	    9.9580 	   23.0000 	   55.0000 	   43.5223 
    0.9232 	    9.9750 	   23.0000 	   55.0000 	   43.5563 
    0.9079 	    9.9915 	   23.0000 	   55.0000 	   43.5893 
    0.8774 	   10.0085 	   23.0000 	   55.0000 	   43.6233 
    0.7248 	   10.0255 	   23.0000 	   55.0000 	   43.6573 
    0.8774 	   10.0430 	   23.0000 	   55.0000 	   43.6923 
    0.9079 	   10.0610 	   23.0000 	   55.0000 	   43.7283 
    0.9232 	   10.0775 	   23.0000 	   55.0000 	   43.7613 
    0.9995 	   10.0945 	   23.0000 	   55.0000 	   43.7953 
    1.0758 	   10.1110 	   23.0000 	   55.0000 	   43.8283 
    0.7706 	   10.1265 	   23.0000 	   55.0000 	   43.8593 
    0.7553 	   10.1525 	   23.0000 	   55.0000 	   43.9113 
    0.7553 	   10.1685 	   23.0000 	   55.0000 	   43.9433 
    0.8316 	   10.1840 	   23.0000 	   55.0000 	   43.9743 
    0.9537 	   10.2010 	   23.0000 	   55.0000 	   44.0083 
    0.9079 	   10.2175 	   23.0000 	   55.0000 	   44.0413 
    0.7858 	   10.2330 	   23.0000 	   55.0000 	   44.0723 
    0.8621 	   10.2475 	   23.0000 	   55.0000 	   44.1013 
    0.9689 	   10.2640 	   23.0000 	   55.0000 	   44.1343 
    0.6638 	   10.2800 	   23.0000 	   55.0000 	   44.1663 
    0.9079 	   10.2980 	   23.0000 	   55.0000 	   44.2023 
    0.9689 	   10.3155 	   23.0000 	   55.0000 	   44.2373 
    0.9537 	   10.3325 	   23.0000 	   55.0000 	   44.2713 
    0.8621 	   10.3500 	   23.0000 	   55.0000 	   44.3063 
    0.9079 	   10.3670 	   23.0000 	   55.0000 	   44.3403 
    0.8164 	   10.3835 	   23.0000 	   55.0000 	   44.3733 
    0.7858 	   10.3995 	   23.0000 	   55.0000 	   44.4053 
    0.8469 	   10.4170 	   23.0000 	   55.0000 	   44.4403 
    0.8011 	   10.4340 	   23.0000 	   55.0000 	   44.4743 
    0.8621 	   10.4500 	   23.0000 	   55.0000 	   44.5063 
    0.9384 	   10.4665 	   23.0000 	   55.0000 	   44.5393 
    0.5417 	   10.4830 	   23.0000 	   55.0000 	   44.5723 
    0.6180 	   10.5010 	   23.0000 	   55.0000 	   44.6083 
    0.9995 	   10.5175 	   23.0000 	   55.0000 	   44.6413 
    0.8774 	   10.5365 	   23.0000 	   55.0000 	   44.6793 
    0.9842 	   10.5535 	   23.0000 	   55.0000 	   44.7133 
    0.9689 	   10.5710 	   23.0000 	   55.0000 	   44.7484 
    0.8927 	   10.5885 	   23.0000 	   55.0000 	   44.7834 
    0.7248 	   10.6060 	   23.0000 	   55.0000 	   44.8184 
    0.9689 	   10.6220 	   23.0000 	   55.0000 	   44.8504 
    0.9232 	   10.6425 	   23.0000 	   55.0000 	   44.8914 
    0.8316 	   10.6585 	   23.0000 	   55.0000 	   44.9234 
    1.0147 	   10.6755 	   23.0000 	   55.0000 	   44.9574 
    0.9537 	   10.6915 	   23.0000 	   55.0000 	   44.9894 
    0.7858 	   10.7075 	   23.0000 	   55.0000 	   45.0214 
    0.8469 	   10.7240 	   23.0000 	   55.0000 	   45.0544 
    0.8927 	   10.7400 	   23.0000 	   55.0000 	   45.0864 
    0.8469 	   10.7550 	   23.0000 	   55.0000 	   45.1164 
    1.0147 	   10.7710 	   23.0000 	   55.0000 	   45.1484 
    0.8621 	   10.7905 	   23.0000 	   55.0000 	   45.1874 
    0.8927 	   10.8070 	   23.0000 	   55.0000 	   45.2204 
    0.9079 	   10.8250 	   23.0000 	   55.0000 	   45.2564 
    0.9384 	   10.8440 	   23.0000 	   55.0000 	   45.2944 
    0.9384 	   10.8615 	   23.0000 	   55.0000 	   45.3294 
    0.9232 	   10.8800 	   23.0000 	   55.0000 	   45.3664 
    0.8927 	   10.8965 	   23.0000 	   55.0000 	   45.3994 
    0.9537 	   10.9145 	   23.0000 	   55.0000 	   45.4354 
    0.8469 	   10.9315 	   23.0000 	   55.0000 	   45.4694 
    0.8621 	   10.9480 	   23.0000 	   55.0000 	   45.5024 
    0.8469 	   10.9650 	   23.0000 	   55.0000 	   45.5364 
    0.9232 	   10.9835 	   23.0000 	   55.0000 	   45.5734 
    0.7706 	   11.0000 	   23.0000 	   55.0000 	   45.6064 
    0.8927 	   11.0170 	   23.0000 	   55.0000 	   45.6404 
    0.7706 	   11.0360 	   23.0000 	   55.0000 	   45.6784 
    0.9384 	   11.0530 	   23.0000 	   55.0000 	   45.7124 
    0.9079 	   11.0700 	   23.0000 	   55.0000 	   45.7464 
    0.9384 	   11.0885 	   23.0000 	   55.0000 	   45.7834 
    0.7248 	   11.1065 	   23.0000 	   55.0000 	   45.8194 
    0.9689 	   11.1240 	   23.0000 	   55.0000 	   45.8544 
    0.8927 	   11.1395 	   23.0000 	   55.0000 	   45.8854 
    0.8774 	   11.1570 	   23.0000 	   55.0000 	   45.9204 
    1.0605 	   11.1735 	   23.0000 	   55.0000 	   45.9534 
    1.0300 	   11.1900 	   23.0000 	   55.0000 	   45.9864 
    0.9384 	   11.2060 	   23.0000 	   55.0000 	   46.0184 
    0.8164 	   11.2215 	   23.0000 	   55.0000 	   46.0494 
    0.8164 	   11.2400 	   23.0000 	   55.0000 	   46.0864 
    1.0147 	   11.2555 	   23.0000 	   55.0000 	   46.1174 
    0.8774 	   11.2710 	   23.0000 	   55.0000 	   46.1484 
    0.9232 	   11.2875 	   23.0000 	   55.0000 	   46.1814 
    0.9689 	   11.3040 	   23.0000 	   55.0000 	   46.2144 
    0.9689 	   11.3210 	   23.0000 	   55.0000 	   46.2484 
    0.9384 	   11.3380 	   23.0000 	   55.0000 	   46.2824 
    0.6332 	   11.3555 	   23.0000 	   55.0000 	   46.3164 
    0.9689 	   11.3730 	   23.0000 	   55.0000 	   46.3524 
    1.0452 	   11.3915 	   23.0000 	   55.0000 	   46.3894 
    0.6332 	   11.4085 	   23.0000 	   55.0000 	   46.4234 
    1.0605 	   11.4260 	   23.0000 	   55.0000 	   46.4585 
    0.9079 	   11.4450 	   23.0000 	   55.0000 	   46.4965 
    1.0452 	   11.4625 	   23.0000 	   55.0000 	   46.5315 
    0.9537 	   11.4790 	   23.0000 	   55.0000 	   46.5645 
    0.8469 	   11.4965 	   23.0000 	   55.0000 	   46.5995 
    0.8164 	   11.5145 	   23.0000 	   55.0000 	   46.6355 
    0.9079 	   11.5325 	   23.0000 	   55.0000 	   46.6715 
    1.0147 	   11.5500 	   23.0000 	   55.0000 	   46.7065 
    0.6790 	   11.5675 	   23.0000 	   55.0000 	   46.7415 
    0.7553 	   11.5835 	   23.0000 	   55.0000 	   46.7735 
    0.9537 	   11.6010 	   23.0000 	   55.0000 	   46.8085 
    0.9384 	   11.6185 	   23.0000 	   55.0000 	   46.8435 
    0.9384 	   11.6370 	   23.0000 	   55.0000 	   46.8805 
    0.9079 	   11.6535 	   23.0000 	   55.0000 	   46.9135 
    0.8774 	   11.6700 	   23.0000 	   55.0000 	   46.9465 
    0.8621 	   11.6870 	   23.0000 	   55.0000 	   46.9805 
    0.9079 	   11.7030 	   23.0000 	   55.0000 	   47.0125 
    0.9995 	   11.7195 	   23.0000 	   55.0000 	   47.0455 
    1.0147 	   11.7360 	   23.0000 	   55.0000 	   47.0785 
    0.9689 	   11.7515 	   23.0000 	   55.0000 	   47.1095 
    0.8927 	   11.7675 	   23.0000 	   55.0000 	   47.1415 
    0.9232 	   11.7850 	   23.0000 	   55.0000 	   47.1765 
    1.0147 	   11.8050 	   23.0000 	   55.0000 	   47.2165 
    0.9842 	   11.8225 	   23.0000 	   55.0000 	   47.2515 
    0.9232 	   11.8435 	   23.0000 	   55.0000 	   47.2935 
    0.7858 	   11.8605 	   23.0000 	   55.0000 	   47.3275 
    0.9384 	   11.8785 	   23.0000 	   55.0000 	   47.3635 
    0.9232 	   11.8960 	   23.0000 	   55.0000 	   47.3985 
    0.8011 	   11.9130 	   23.0000 	   55.0000 	   47.4325 
    0.8927 	   11.9310 	   23.0000 	   55.0000 	   47.4685 
    1.0452 	   11.9480 	   23.0000 	   55.0000 	   47.5025 
    0.8927 	   11.9660 	   23.0000 	   55.0000 	   47.5385 
    0.9232 	   11.9840 	   23.0000 	   55.0000 	   47.5745 
    0.8774 	   12.0010 	   23.0000 	   55.0000 	   47.6085 
    0.7858 	   12.0185 	   23.0000 	   55.0000 	   47.6435 
    0.9537 	   12.0380 	   23.0000 	   55.0000 	   47.6825 
    0.9689 	   12.0555 	   23.0000 	   55.0000 	   47.7175 
    0.8774 	   12.0730 	   23.0000 	   55.0000 	   47.7525 
    0.9995 	   12.0910 	   23.0000 	   55.0000 	   47.7885 
    0.9232 	   12.1080 	   23.0000 	   55.0000 	   47.8225 
    0.9995 	   12.1265 	   23.0000 	   55.0000 	   47.8595 
    0.9232 	   12.1430 	   23.0000 	   55.0000 	   47.8925 
    0.8927 	   12.1610 	   23.0000 	   55.0000 	   47.9285 
    0.9842 	   12.1775 	   23.0000 	   55.0000 	   47.9615 
    0.9079 	   12.1940 	   23.0000 	   55.0000 	   47.9945 
    0.8316 	   12.2095 	   23.0000 	   55.0000 	   48.0255 
    1.0300 	   12.2260 	   23.0000 	   55.0000 	   48.0585 
    0.8316 	   12.2430 	   23.0000 	   55.0000 	   48.0925 
    0.8927 	   12.2570 	   23.0000 	   55.0000 	   48.1205 
    0.9537 	   12.2725 	   23.0000 	   55.0000 	   48.1515 
    0.8164 	   12.2890 	   23.0000 	   55.0000 	   48.1845 
    1.0147 	   12.3055 	   23.0000 	   55.0000 	   48.2176 
    0.9384 	   12.3235 	   23.0000 	   55.0000 	   48.2536 
    0.8316 	   12.3415 	   23.0000 	   55.0000 	   48.2896 
    0.8927 	   12.3595 	   23.0000 	   55.0000 	   48.3256 
    0.9842 	   12.3770 	   23.0000 	   55.0000 	   48.3606 
    0.8621 	   12.3945 	   23.0000 	   55.0000 	   48.3956 
    0.8621 	   12.4125 	   23.0000 	   55.0000 	   48.4316 
    1.0605 	   12.4310 	   23.0000 	   55.0000 	   48.4686 
    0.9232 	   12.4510 	   23.0000 	   55.0000 	   48.5086 
    0.9079 	   12.4685 	   23.0000 	   55.0000 	   48.5436 
    0.9995 	   12.4865 	   23.0000 	   55.0000 	   48.5796 
    0.7858 	   12.5040 	   23.0000 	   55.0000 	   48.6146 
    1.0758 	   12.5260 	   23.0000 	   55.0000 	   48.6586 
    0.9232 	   12.5465 	   23.0000 	   55.0000 	   48.6996 
    1.0147 	   12.5650 	   23.0000 	   55.0000 	   48.7366 
    0.9537 	   12.5825 	   23.0000 	   55.0000 	   48.7716 
    0.8316 	   12.6010 	   23.0000 	   55.0000 	   48.8086 
    0.6790 	   12.6175 	   23.0000 	   55.0000 	   48.8416 
    0.9995 	   12.6340 	   23.0000 	   55.0000 	   48.8746 
    0.9232 	   12.6500 	   23.0000 	   55.0000 	   48.9066 
    0.8164 	   12.6660 	   23.0000 	   55.0000 	   48.9386 
    0.9384 	   12.6825 	   23.0000 	   55.0000 	   48.9716 
    0.7858 	   12.6990 	   23.0000 	   55.0000 	   49.0046 
    0.8774 	   12.7160 	   23.0000 	   55.0000 	   49.0386 
    0.8621 	   12.7320 	   23.0000 	   55.0000 	   49.0706 
    0.8927 	   12.7480 	   23.0000 	   55.0000 	   49.1026 
    1.0758 	   12.7630 	   23.0000 	   55.0000 	   49.1326 
    0.9079 	   12.7785 	   23.0000 	   55.0000 	   49.1636 
    0.7248 	   12.7965 	   23.0000 	   55.0000 	   49.1996 
    0.8621 	   12.8130 	   23.0000 	   55.0000 	   49.2326 
    0.9232 	   12.8310 	   23.0000 	   55.0000 	   49.2686 
    0.8774 	   12.8490 	   23.0000 	   55.0000 	   49.3046 
    1.1215 	   12.8670 	   23.0000 	   55.0000 	   49.3406 
    0.8774 	   12.8840 	   23.0000 	   55.0000 	   49.3746 
    0.9384 	   12.9015 	   23.0000 	   55.0000 	   49.4096 
    0.9689 	   12.9190 	   23.0000 	   55.0000 	   49.4446 
    0.8774 	   12.9370 	   23.0000 	   55.0000 	   49.4806 
    0.8927 	   12.9545 	   23.0000 	   55.0000 	   49.5156 
    0.8316 	   12.9725 	   23.0000 	   55.0000 	   49.5516 
    1.0452 	   12.9910 	   23.0000 	   55.0000 	   49.5886 
    0.9689 	   13.0090 	   23.0000 	   55.0000 	   49.6246 
    1.0605 	   13.0275 	   23.0000 	   55.0000 	   49.6616 
    0.8927 	   13.0460 	   23.0000 	   55.0000 	   49.6986 
    0.9232 	   13.0635 	   23.0000 	   55.0000 	   49.7336 
    1.0300 	   13.0810 	   23.0000 	   55.0000 	   49.7686 
    1.0300 	   13.0990 	   23.0000 	   55.0000 	   49.8046 
    1.1521 	   13.1170 	   23.0000 	   55.0000 	   49.8406 
    1.0452 	   13.1335 	   23.0000 	   55.0000 	   49.8736 
    0.9537 	   13.1505 	   23.0000 	   55.0000 	   49.9076 
    0.9232 	   13.1670 	   23.0000 	   55.0000 	   49.9406 
    0.9537 	   13.1835 	   23.0000 	   55.0000 	   49.9737 
    0.9842 	   13.2000 	   23.0000 	   55.0000 	   50.0067 
    1.0452 	   13.2160 	   23.0000 	   55.0000 	   50.0387 
    0.8621 	   13.2315 	   23.0000 	   55.0000 	   50.0697 
    0.9079 	   13.2465 	   23.0000 	   55.0000 	   50.0997 
    0.9232 	   13.2615 	   23.0000 	   55.0000 	   50.1297 
    0.9689 	   13.2765 	   23.0000 	   55.0000 	   50.1597 
    0.9842 	   13.2935 	   23.0000 	   55.0000 	   50.1937 
    0.8011 	   13.3095 	   23.0000 	   55.0000 	   50.2257 
    0.9537 	   13.3250 	   23.0000 	   55.0000 	   50.2567 
    0.7858 	   13.3425 	   23.0000 	   55.0000 	   50.2917 
    1.0910 	   13.3590 	   23.0000 	   55.0000 	   50.3247 
    1.0452 	   13.3745 	   23.0000 	   55.0000 	   50.3557 
    0.9384 	   13.3900 	   23.0000 	   55.0000 	   50.3867 
    0.8621 	   13.4055 	   23.0000 	   55.0000 	   50.4177 
    1.0147 	   13.4210 	   23.0000 	   55.0000 	   50.4487 
    0.9842 	   13.4365 	   23.0000 	   55.0000 	   50.4797 
    1.0147 	   13.4520 	   23.0000 	   55.0000 	   50.5107 
    0.7858 	   13.4675 	   23.0000 	   55.0000 	   50.5417 
    0.8164 	   13.4835 	   23.0000 	   55.0000 	   50.5737 
    0.9689 	   13.4985 	   23.0000 	   55.0000 	   50.6037 
    0.8469 	   13.5140 	   23.0000 	   55.0000 	   50.6347 
    0.9537 	   13.5295 	   23.0000 	   55.0000 	   50.6657 
    0.8469 	   13.5480 	   23.0000 	   55.0000 	   50.7027 
    0.9079 	   13.5670 	   23.0000 	   55.0000 	   50.7407 
    0.9842 	   13.5830 	   23.0000 	   55.0000 	   50.7727 
    0.9079 	   13.6000 	   23.0000 	   55.0000 	   50.8067 
    0.9537 	   13.6160 	   23.0000 	   55.0000 	   50.8387 
    1.0147 	   13.6320 	   23.0000 	   55.0000 	   50.8707 
    0.9537 	   13.6485 	   23.0000 	   55.0000 	   50.9037 
    0.8774 	   13.6640 	   23.0000 	   55.0000 	   50.9347 
    0.9537 	   13.6795 	   23.0000 	   55.0000 	   50.9657 
    1.0147 	   13.6950 	   23.0000 	   55.0000 	   50.9967 
    0.9995 	   13.7120 	   23.0000 	   55.0000 	   51.0307 
    1.0758 	   13.7275 	   23.0000 	   55.0000 	   51.0617 
    0.9689 	   13.7430 	   23.0000 	   55.0000 	   51.0927 
    0.8774 	   13.7580 	   23.0000 	   55.0000 	   51.1227 
    0.8927 	   13.7730 	   23.0000 	   55.0000 	   51.1527 
    0.6180 	   13.7900 	   23.0000 	   55.0000 	   51.1867 
    0.6485 	   13.8060 	   23.0000 	   55.0000 	   51.2187 
    1.0300 	   13.8215 	   23.0000 	   55.0000 	   51.2497 
    0.9537 	   13.8370 	   23.0000 	   55.0000 	   51.2807 
    0.9232 	   13.8530 	   23.0000 	   55.0000 	   51.3127 
    1.0452 	   13.8685 	   23.0000 	   55.0000 	   51.3437 
    0.9842 	   13.8840 	   23.0000 	   55.0000 	   51.3747 
    0.9384 	   13.8995 	   23.0000 	   55.0000 	   51.4057 
    0.9232 	   13.9155 	   23.0000 	   55.0000 	   51.4377 
    0.9842 	   13.9305 	   23.0000 	   55.0000 	   51.4677 
    0.9079 	   13.9475 	   23.0000 	   55.0000 	   51.5017 
    1.0147 	   13.9655 	   23.0000 	   55.0000 	   51.5377 
    1.0300 	   13.9840 	   23.0000 	   55.0000 	   51.5747 
    0.9537 	   14.0005 	   23.0000 	   55.0000 	   51.6077 
    0.9537 	   14.0160 	   23.0000 	   55.0000 	   51.6387 
    0.9384 	   14.0355 	   23.0000 	   55.0000 	   51.6777 
    1.0147 	   14.0535 	   23.0000 	   55.0000 	   51.7137 
    0.6485 	   14.0720 	   23.0000 	   55.0000 	   51.7508 
    1.0147 	   14.0905 	   23.0000 	   55.0000 	   51.7878 
    0.9537 	   14.1080 	   23.0000 	   55.0000 	   51.8228 
    0.9842 	   14.1255 	   23.0000 	   55.0000 	   51.8578 
    0.9842 	   14.1425 	   23.0000 	   55.0000 	   51.8918 
    1.0147 	   14.1590 	   23.0000 	   55.0000 	   51.9248 
    0.9079 	   14.1755 	   23.0000 	   55.0000 	   51.9578 
    0.9079 	   14.1915 	   23.0000 	   55.0000 	   51.9898 
    0.9232 	   14.2075 	   23.0000 	   55.0000 	   52.0218 
    1.0758 	   14.2240 	   23.0000 	   55.0000 	   52.0548 
    0.9995 	   14.2405 	   23.0000 	   55.0000 	   52.0878 
    0.6943 	   14.2555 	   23.0000 	   55.0000 	   52.1178 
    0.8927 	   14.2705 	   23.0000 	   55.0000 	   52.1478 
    1.0452 	   14.2905 	   23.0000 	   55.0000 	   52.1878 
    0.9232 	   14.3080 	   23.0000 	   55.0000 	   52.2228 
    0.8621 	   14.3260 	   23.0000 	   55.0000 	   52.2588 
    1.0147 	   14.3445 	   23.0000 	   55.0000 	   52.2958 
    0.9079 	   14.3610 	   23.0000 	   55.0000 	   52.3288 
    1.1215 	   14.3780 	   23.0000 	   55.0000 	   52.3628 
    1.1063 	   14.3970 	   23.0000 	   55.0000 	   52.4008 
    1.0300 	   14.4155 	   23.0000 	   55.0000 	   52.4378 
    0.8164 	   14.4340 	   23.0000 	   55.0000 	   52.4748 
    0.9232 	   14.4525 	   23.0000 	   55.0000 	   52.5118 
    0.9842 	   14.4710 	   23.0000 	   55.0000 	   52.5488 
    0.9537 	   14.4890 	   23.0000 	   55.0000 	   52.5848 
    1.0452 	   14.5065 	   23.0000 	   55.0000 	   52.6198 
    0.9232 	   14.5260 	   23.0000 	   55.0000 	   52.6588 
    1.1063 	   14.5450 	   23.0000 	   55.0000 	   52.6968 
    0.9079 	   14.5640 	   23.0000 	   55.0000 	   52.7348 
    0.9689 	   14.5820 	   23.0000 	   55.0000 	   52.7708 
    0.8774 	   14.6005 	   23.0000 	   55.0000 	   52.8078 
    1.0452 	   14.6190 	   23.0000 	   55.0000 	   52.8448 
    1.0452 	   14.6365 	   23.0000 	   55.0000 	   52.8798 
    0.9995 	   14.6535 	   23.0000 	   55.0000 	   52.9138 
    0.9232 	   14.6705 	   23.0000 	   55.0000 	   52.9478 
    0.8774 	   14.6870 	   23.0000 	   55.0000 	   52.9808 
    0.8774 	   14.7040 	   23.0000 	   55.0000 	   53.0148 
    0.9842 	   14.7205 	   23.0000 	   55.0000 	   53.0478 
    1.0605 	   14.7385 	   23.0000 	   55.0000 	   53.0838 
    0.8774 	   14.7535 	   23.0000 	   55.0000 	   53.1138 
    0.9384 	   14.7700 	   23.0000 	   55.0000 	   53.1468 
    1.1521 	   14.7895 	   23.0000 	   55.0000 	   53.1858 
    0.8927 	   14.8075 	   23.0000 	   55.0000 	   53.2218 
    0.9842 	   14.8255 	   23.0000 	   55.0000 	   53.2578 
    0.7858 	   14.8425 	   23.0000 	   55.0000 	   53.2918 
    1.0758 	   14.8585 	   23.0000 	   55.0000 	   53.3238 
    0.9537 	   14.8745 	   23.0000 	   55.0000 	   53.3558 
    1.0147 	   14.8925 	   23.0000 	   55.0000 	   53.3918 
    0.9537 	   14.9105 	   23.0000 	   55.0000 	   53.4278 
    0.9079 	   14.9290 	   23.0000 	   55.0000 	   53.4649 
    0.9079 	   14.9470 	   23.0000 	   55.0000 	   53.5009 
    0.9537 	   14.9660 	   23.0000 	   55.0000 	   53.5389 
    0.9842 	   14.9850 	   23.0000 	   55.0000 	   53.5769 
    1.0758 	   15.0020 	   23.0000 	   55.0000 	   53.6109 
    0.9537 	   15.0200 	   23.0000 	   55.0000 	   53.6459 
    0.7095 	   15.0385 	   23.0000 	   55.0000 	   53.6839 
    0.9689 	   15.0560 	   23.0000 	   55.0000 	   53.7189 
    0.9079 	   15.0725 	   23.0000 	   55.0000 	   53.7519 
    0.9232 	   15.0895 	   23.0000 	   55.0000 	   53.7859 
    1.0147 	   15.1060 	   23.0000 	   55.0000 	   53.8179 
    0.9079 	   15.1240 	   23.0000 	   55.0000 	   53.8539 
    1.0910 	   15.1420 	   23.0000 	   55.0000 	   53.8899 
    1.0300 	   15.1600 	   23.0000 	   55.0000 	   53.9259 
    0.9232 	   15.1785 	   23.0000 	   55.0000 	   53.9629 
    1.1521 	   15.1960 	   23.0000 	   55.0000 	   53.9979 
    0.9079 	   15.2130 	   23.0000 	   55.0000 	   54.0319 
    0.9079 	   15.2300 	   23.0000 	   55.0000 	   54.0659 
    0.9689 	   15.2470 	   23.0000 	   55.0000 	   54.0999 
    1.0300 	   15.2625 	   23.0000 	   55.0000 	   54.1309 
    0.9995 	   15.2780 	   23.0000 	   55.0000 	   54.1619 
    0.9384 	   15.2940 	   23.0000 	   55.0000 	   54.1939 
    0.9537 	   15.3115 	   23.0000 	   55.0000 	   54.2289 
    0.9232 	   15.3285 	   23.0000 	   55.0000 	   54.2629 
    0.8621 	   15.3450 	   23.0000 	   55.0000 	   54.2959 
    0.8316 	   15.3610 	   23.0000 	   55.0000 	   54.3279 
    1.0147 	   15.3765 	   23.0000 	   55.0000 	   54.3589 
    0.8927 	   15.3925 	   23.0000 	   55.0000 	   54.3909 
    0.9842 	   15.4115 	   23.0000 	   55.0000 	   54.4289 
    0.8774 	   15.4290 	   23.0000 	   55.0000 	   54.4639 
    1.0758 	   15.4475 	   23.0000 	   55.0000 	   54.5009 
    1.0605 	   15.4650 	   23.0000 	   55.0000 	   54.5359 
    1.0910 	   15.4835 	   23.0000 	   55.0000 	   54.5729 
    1.0147 	   15.5025 	   23.0000 	   55.0000 	   54.6109 
    0.9232 	   15.5265 	   23.0000 	   55.0000 	   54.6589 
    0.7706 	   15.5455 	   23.0000 	   55.0000 	   54.6969 
    0.9842 	   15.5640 	   23.0000 	   55.0000 	   54.7339 
    0.9995 	   15.5825 	   23.0000 	   55.0000 	   54.7709 
    0.8927 	   15.6005 	   23.0000 	   55.0000 	   54.8069 
    0.9537 	   15.6195 	   23.0000 	   55.0000 	   54.8449 
    0.9537 	   15.6380 	   23.0000 	   55.0000 	   54.8819 
    0.9995 	   15.6555 	   23.0000 	   55.0000 	   54.9169 
    0.9079 	   15.6730 	   23.0000 	   55.0000 	   54.9519 
    1.0452 	   15.6895 	   23.0000 	   55.0000 	   54.9849 
    0.9995 	   15.7060 	   23.0000 	   55.0000 	   55.0179 
    0.8774 	   15.7240 	   23.0000 	   55.0000 	   55.0539 
    0.9995 	   15.7405 	   23.0000 	   55.0000 	   55.0869 
    0.9995 	   15.7575 	   23.0000 	   55.0000 	   55.1209 
    0.9995 	   15.7735 	   23.0000 	   55.0000 	   55.1529 
    0.9079 	   15.7890 	   23.0000 	   55.0000 	   55.1839 
    1.1215 	   15.8055 	   23.0000 	   55.0000 	   55.2169 
    0.7401 	   15.8210 	   23.0000 	   55.0000 	   55.2480 
    0.9995 	   15.8375 	   23.0000 	   55.0000 	   55.2810 
    1.0452 	   15.8550 	   23.0000 	   55.0000 	   55.3160 
    0.9537 	   15.8735 	   23.0000 	   55.0000 	   55.3530 
    0.8774 	   15.8925 	   23.0000 	   55.0000 	   55.3910 
    1.0300 	   15.9120 	   23.0000 	   55.0000 	   55.4300 
    1.0300 	   15.9300 	   23.0000 	   55.0000 	   55.4660 
    0.8774 	   15.9475 	   23.0000 	   55.0000 	   55.5010 
    1.0147 	   15.9655 	   23.0000 	   55.0000 	   55.5370 
    0.8774 	   15.9830 	   23.0000 	   55.0000 	   55.5720 
    0.8621 	   16.0015 	   23.0000 	   55.0000 	   55.6090 
    0.9842 	   16.0205 	   23.0000 	   55.0000 	   55.6470 
    1.0147 	   16.0400 	   23.0000 	   55.0000 	   55.6860 
    0.9842 	   16.0585 	   23.0000 	   55.0000 	   55.7230 
    0.8316 	   16.0770 	   23.0000 	   55.0000 	   55.7600 
    0.9689 	   16.0960 	   23.0000 	   55.0000 	   55.7980 
    1.0147 	   16.1150 	   23.0000 	   55.0000 	   55.8360 
    0.9689 	   16.1340 	   23.0000 	   55.0000 	   55.8740 
    1.0452 	   16.1520 	   23.0000 	   55.0000 	   55.9100 
    1.0300 	   16.1695 	   23.0000 	   55.0000 	   55.9450 
    1.0300 	   16.1865 	   23.0000 	   55.0000 	   55.9790 
    0.9995 	   16.2030 	   23.0000 	   55.0000 	   56.0120 
    0.9995 	   16.2200 	   23.0000 	   55.0000 	   56.0460 
    0.8774 	   16.2370 	   23.0000 	   55.0000 	   56.0800 
    0.9384 	   16.2525 	   23.0000 	   55.0000 	   56.1110 
    0.8469 	   16.2690 	   23.0000 	   55.0000 	   56.1440 
    1.0605 	   16.2850 	   23.0000 	   55.0000 	   56.1760 
    1.1215 	   16.3040 	   23.0000 	   55.0000 	   56.2140 
    1.0147 	   16.3220 	   23.0000 	   55.0000 	   56.2500 
    1.0300 	   16.3400 	   23.0000 	   55.0000 	   56.2860 
    0.8011 	   16.3590 	   23.0000 	   55.0000 	   56.3240 
    0.9384 	   16.3775 	   23.0000 	   55.0000 	   56.3610 
    0.9842 	   16.3955 	   23.0000 	   55.0000 	   56.3970 
    0.9995 	   16.4135 	   23.0000 	   55.0000 	   56.4330 
    0.8011 	   16.4315 	   23.0000 	   55.0000 	   56.4690 
    1.0605 	   16.4500 	   23.0000 	   55.0000 	   56.5060 
    1.0300 	   16.4685 	   23.0000 	   55.0000 	   56.5430 
    1.0605 	   16.4880 	   23.0000 	   55.0000 	   56.5820 
    1.0452 	   16.5060 	   23.0000 	   55.0000 	   56.6180 
    1.2131 	   16.5250 	   23.0000 	   55.0000 	   56.6560 
    1.0758 	   16.5445 	   23.0000 	   55.0000 	   56.6950 
    1.0452 	   16.5645 	   23.0000 	   55.0000 	   56.7340 
    1.0452 	   16.5830 	   23.0000 	   55.0000 	   56.7720 
    1.0300 	   16.6010 	   23.0000 	   55.0000 	   56.8080 
    1.1521 	   16.6195 	   23.0000 	   55.0000 	   56.8450 
    1.1826 	   16.6390 	   23.0000 	   55.0000 	   56.8840 
    1.0605 	   16.6560 	   23.0000 	   55.0000 	   56.9180 
    1.1215 	   16.6725 	   23.0000 	   55.0000 	   56.9510 
    0.9689 	   16.6920 	   23.0000 	   55.0000 	   56.9901 
    0.8927 	   16.7080 	   23.0000 	   55.0000 	   57.0221 
    1.0910 	   16.7230 	   23.0000 	   55.0000 	   57.0521 
    0.8927 	   16.7395 	   23.0000 	   55.0000 	   57.0851 
    1.0300 	   16.7575 	   23.0000 	   55.0000 	   57.1211 
    1.1215 	   16.7760 	   23.0000 	   55.0000 	   57.1581 
    1.0910 	   16.7925 	   23.0000 	   55.0000 	   57.1911 
    1.1215 	   16.8115 	   23.0000 	   55.0000 	   57.2291 
    0.7706 	   16.8290 	   23.0000 	   55.0000 	   57.2641 
    1.0300 	   16.8470 	   23.0000 	   55.0000 	   57.3001 
    1.1368 	   16.8660 	   23.0000 	   55.0000 	   57.3381 
    1.0147 	   16.8830 	   23.0000 	   55.0000 	   57.3721 
    1.1063 	   16.8990 	   23.0000 	   55.0000 	   57.4041 
    1.0147 	   16.9155 	   23.0000 	   55.0000 	   57.4371 
    0.9842 	   16.9335 	   23.0000 	   55.0000 	   57.4731 
    0.9842 	   16.9525 	   23.0000 	   55.0000 	   57.5111 
    1.1063 	   16.9705 	   23.0000 	   55.0000 	   57.5471 
    0.7706 	   16.9890 	   23.0000 	   55.0000 	   57.5841 
    0.9232 	   17.0075 	   23.0000 	   55.0000 	   57.6211 
    0.9842 	   17.0265 	   23.0000 	   55.0000 	   57.6591 
    1.0605 	   17.0465 	   23.0000 	   55.0000 	   57.6991 
    1.0910 	   17.0660 	   23.0000 	   55.0000 	   57.7381 
    1.0452 	   17.0845 	   23.0000 	   55.0000 	   57.7751 
    1.0758 	   17.1025 	   23.0000 	   55.0000 	   57.8111 
    1.0758 	   17.1210 	   23.0000 	   55.0000 	   57.8481 
    1.1063 	   17.1395 	   23.0000 	   55.0000 	   57.8851 
    0.9537 	   17.1580 	   23.0000 	   55.0000 	   57.9221 
    1.1063 	   17.1760 	   23.0000 	   55.0000 	   57.9581 
    1.0605 	   17.1925 	   23.0000 	   55.0000 	   57.9911 
    1.1826 	   17.2090 	   23.0000 	   55.0000 	   58.0241 
    1.0147 	   17.2260 	   23.0000 	   55.0000 	   58.0581 
    1.0300 	   17.2435 	   23.0000 	   55.0000 	   58.0931 
    1.0605 	   17.2610 	   23.0000 	   55.0000 	   58.1281 
    1.1673 	   17.2770 	   23.0000 	   55.0000 	   58.1601 
    0.9384 	   17.2930 	   23.0000 	   55.0000 	   58.1921 
    1.1215 	   17.3095 	   23.0000 	   55.0000 	   58.2251 
    1.1063 	   17.3260 	   23.0000 	   55.0000 	   58.2581 
    0.9232 	   17.3435 	   23.0000 	   55.0000 	   58.2931 
    1.0758 	   17.3620 	   23.0000 	   55.0000 	   58.3301 
    1.0605 	   17.3810 	   23.0000 	   55.0000 	   58.3681 
    0.8011 	   17.3995 	   23.0000 	   55.0000 	   58.4051 
    1.0452 	   17.4180 	   23.0000 	   55.0000 	   58.4421 
    1.1826 	   17.4355 	   23.0000 	   55.0000 	   58.4771 
    1.1978 	   17.4550 	   23.0000 	   55.0000 	   58.5161 
    1.0605 	   17.4740 	   23.0000 	   55.0000 	   58.5541 
    1.0452 	   17.4925 	   23.0000 	   55.0000 	   58.5911 
    1.0147 	   17.5110 	   23.0000 	   55.0000 	   58.6281 
    1.0300 	   17.5295 	   23.0000 	   55.0000 	   58.6651 
    1.0452 	   17.5485 	   23.0000 	   55.0000 	   58.7031 
    1.0300 	   17.5665 	   23.0000 	   55.0000 	   58.7392 
    0.9079 	   17.5845 	   23.0000 	   55.0000 	   58.7752 
    0.9842 	   17.6040 	   23.0000 	   55.0000 	   58.8142 
    1.0452 	   17.6225 	   23.0000 	   55.0000 	   58.8512 
    1.0605 	   17.6410 	   23.0000 	   55.0000 	   58.8882 
    1.1063 	   17.6600 	   23.0000 	   55.0000 	   58.9262 
    1.1368 	   17.6775 	   23.0000 	   55.0000 	   58.9612 
    1.1368 	   17.6945 	   23.0000 	   55.0000 	   58.9952 
    1.0452 	   17.7110 	   23.0000 	   55.0000 	   59.0282 
    1.0452 	   17.7300 	   23.0000 	   55.0000 	   59.0662 
    1.0758 	   17.7470 	   23.0000 	   55.0000 	   59.1002 
    1.1063 	   17.7640 	   23.0000 	   55.0000 	   59.1342 
    1.0300 	   17.7820 	   23.0000 	   55.0000 	   59.1702 
    1.0452 	   17.8015 	   23.0000 	   55.0000 	   59.2092 
    1.0147 	   17.8200 	   23.0000 	   55.0000 	   59.2462 
    0.9384 	   17.8395 	   23.0000 	   55.0000 	   59.2852 
    1.0300 	   17.8585 	   23.0000 	   55.0000 	   59.3232 
    1.1063 	   17.8775 	   23.0000 	   55.0000 	   59.3612 
    1.1521 	   17.8960 	   23.0000 	   55.0000 	   59.3982 
    1.0147 	   17.9145 	   23.0000 	   55.0000 	   59.4352 
    1.1215 	   17.9335 	   23.0000 	   55.0000 	   59.4732 
    1.1368 	   17.9510 	   23.0000 	   55.0000 	   59.5082 
    1.0147 	   17.9675 	   23.0000 	   55.0000 	   59.5412 
    1.0452 	   17.9840 	   23.0000 	   55.0000 	   59.5742 
    1.1368 	   18.0000 	   23.0000 	   55.0000 	   59.6062 
    1.1978 	   18.0165 	   23.0000 	   55.0000 	   59.6392 
    1.0605 	   18.0340 	   23.0000 	   55.0000 	   59.6742 
    1.0300 	   18.0525 	   23.0000 	   55.0000 	   59.7112 
    1.1215 	   18.0695 	   23.0000 	   55.0000 	   59.7452 
    0.9995 	   18.0870 	   23.0000 	   55.0000 	   59.7802 
    1.0300 	   18.1050 	   23.0000 	   55.0000 	   59.8162 
    1.0300 	   18.1215 	   23.0000 	   55.0000 	   59.8492 
    1.0910 	   18.1380 	   23.0000 	   55.0000 	   59.8822 
    1.0605 	   18.1545 	   23.0000 	   55.0000 	   59.9152 
    1.1368 	   18.1720 	   23.0000 	   55.0000 	   59.9502 
    1.0147 	   18.1885 	   23.0000 	   55.0000 	   59.9832 
    1.2436 	   18.2070 	   23.0000 	   56.0000 	    0.0202 
    1.0300 	   18.2240 	   23.0000 	   56.0000 	    0.0542 
    1.0605 	   18.2420 	   23.0000 	   56.0000 	    0.0902 
    1.0758 	   18.2590 	   23.0000 	   56.0000 	    0.1242 
    1.0910 	   18.2755 	   23.0000 	   56.0000 	    0.1572 
    1.0452 	   18.2940 	   23.0000 	   56.0000 	    0.1942 
    1.1673 	   18.3100 	   23.0000 	   56.0000 	    0.2262 
    1.1063 	   18.3265 	   23.0000 	   56.0000 	    0.2592 
    1.0300 	   18.3425 	   23.0000 	   56.0000 	    0.2912 
    1.2741 	   18.3585 	   23.0000 	   56.0000 	    0.3232 
    1.1673 	   18.3745 	   23.0000 	   56.0000 	    0.3552 
    1.0605 	   18.3910 	   23.0000 	   56.0000 	    0.3882 
    1.1063 	   18.4085 	   23.0000 	   56.0000 	    0.4232 
    1.0605 	   18.4250 	   23.0000 	   56.0000 	    0.4563 
    1.1368 	   18.4410 	   23.0000 	   56.0000 	    0.4883 
    1.0300 	   18.4580 	   23.0000 	   56.0000 	    0.5223 
    1.0605 	   18.4750 	   23.0000 	   56.0000 	    0.5563 
    0.9537 	   18.4925 	   23.0000 	   56.0000 	    0.5913 
    0.9689 	   18.5090 	   23.0000 	   56.0000 	    0.6243 
    1.0452 	   18.5260 	   23.0000 	   56.0000 	    0.6583 
    1.0452 	   18.5450 	   23.0000 	   56.0000 	    0.6963 
    1.0605 	   18.5660 	   23.0000 	   56.0000 	    0.7383 
    0.8774 	   18.5830 	   23.0000 	   56.0000 	    0.7723 
    1.0758 	   18.6000 	   23.0000 	   56.0000 	    0.8063 
    1.0452 	   18.6160 	   23.0000 	   56.0000 	    0.8383 
    1.0452 	   18.6320 	   23.0000 	   56.0000 	    0.8703 
    1.0910 	   18.6505 	   23.0000 	   56.0000 	    0.9073 
    0.8774 	   18.6685 	   23.0000 	   56.0000 	    0.9433 
    1.1063 	   18.6875 	   23.0000 	   56.0000 	    0.9803 
    1.0758 	   18.7050 	   23.0000 	   56.0000 	    1.0163 
    1.1673 	   18.7230 	   23.0000 	   56.0000 	    1.0523 
    1.0452 	   18.7400 	   23.0000 	   56.0000 	    1.0863 
    1.1063 	   18.7565 	   23.0000 	   56.0000 	    1.1193 
    0.9537 	   18.7730 	   23.0000 	   56.0000 	    1.1523 
    0.9995 	   18.7920 	   23.0000 	   56.0000 	    1.1903 
    0.8316 	   18.8110 	   23.0000 	   56.0000 	    1.2283 
    1.0758 	   18.8295 	   23.0000 	   56.0000 	    1.2653 
    1.0300 	   18.8475 	   23.0000 	   56.0000 	    1.3013 
    1.1063 	   18.8665 	   23.0000 	   56.0000 	    1.3393 
    1.0147 	   18.8855 	   23.0000 	   56.0000 	    1.3773 
    1.1063 	   18.9040 	   23.0000 	   56.0000 	    1.4143 
    0.9384 	   18.9225 	   23.0000 	   56.0000 	    1.4513 
    0.8927 	   18.9410 	   23.0000 	   56.0000 	    1.4883 
    1.1521 	   18.9610 	   23.0000 	   56.0000 	    1.5283 
    1.1978 	   18.9810 	   23.0000 	   56.0000 	    1.5683 
    1.1673 	   19.0005 	   23.0000 	   56.0000 	    1.6073 
    1.1215 	   19.0190 	   23.0000 	   56.0000 	    1.6443 
    0.9995 	   19.0400 	   23.0000 	   56.0000 	    1.6863 
    1.0300 	   19.0580 	   23.0000 	   56.0000 	    1.7223 
    1.1521 	   19.0775 	   23.0000 	   56.0000 	    1.7613 
    1.0758 	   19.0960 	   23.0000 	   56.0000 	    1.7983 
    0.9842 	   19.1130 	   23.0000 	   56.0000 	    1.8323 
    1.1063 	   19.1310 	   23.0000 	   56.0000 	    1.8683 
    0.9842 	   19.1500 	   23.0000 	   56.0000 	    1.9063 
    1.1063 	   19.1695 	   23.0000 	   56.0000 	    1.9453 
    1.1215 	   19.1890 	   23.0000 	   56.0000 	    1.9843 
    1.1978 	   19.2075 	   23.0000 	   56.0000 	    2.0213 
    0.9995 	   19.2260 	   23.0000 	   56.0000 	    2.0583 
    0.9995 	   19.2450 	   23.0000 	   56.0000 	    2.0963 
    0.8774 	   19.2645 	   23.0000 	   56.0000 	    2.1353 
    1.0910 	   19.2830 	   23.0000 	   56.0000 	    2.1723 
    1.0605 	   19.3020 	   23.0000 	   56.0000 	    2.2104 
    1.1368 	   19.3210 	   23.0000 	   56.0000 	    2.2484 
    1.3504 	   19.3395 	   23.0000 	   56.0000 	    2.2854 
    1.0758 	   19.3585 	   23.0000 	   56.0000 	    2.3234 
    1.0758 	   19.3770 	   23.0000 	   56.0000 	    2.3604 
    1.0758 	   19.3940 	   23.0000 	   56.0000 	    2.3944 
    1.1215 	   19.4135 	   23.0000 	   56.0000 	    2.4334 
    1.1215 	   19.4315 	   23.0000 	   56.0000 	    2.4694 
    1.2284 	   19.4500 	   23.0000 	   56.0000 	    2.5064 
    1.0758 	   19.4685 	   23.0000 	   56.0000 	    2.5434 
    0.9537 	   19.4880 	   23.0000 	   56.0000 	    2.5824 
    1.1063 	   19.5070 	   23.0000 	   56.0000 	    2.6204 
    1.2589 	   19.5265 	   23.0000 	   56.0000 	    2.6584 
    1.0147 	   19.5455 	   23.0000 	   56.0000 	    2.6974 
    0.9842 	   19.5640 	   23.0000 	   56.0000 	    2.7344 
    1.0147 	   19.5825 	   23.0000 	   56.0000 	    2.7714 
    1.1063 	   19.5995 	   23.0000 	   56.0000 	    2.8054 
    0.8774 	   19.6170 	   23.0000 	   56.0000 	    2.8404 
    1.0605 	   19.6330 	   23.0000 	   56.0000 	    2.8724 
    1.1368 	   19.6500 	   23.0000 	   56.0000 	    2.9064 
    1.0758 	   19.6665 	   23.0000 	   56.0000 	    2.9394 
    0.9995 	   19.6845 	   23.0000 	   56.0000 	    2.9754 
    0.9842 	   19.7035 	   23.0000 	   56.0000 	    3.0134 
    1.1368 	   19.7225 	   23.0000 	   56.0000 	    3.0514 
    1.0452 	   19.7410 	   23.0000 	   56.0000 	    3.0884 
    1.0758 	   19.7580 	   23.0000 	   56.0000 	    3.1224 
    1.2894 	   19.7750 	   23.0000 	   56.0000 	    3.1564 
    1.1673 	   19.7915 	   23.0000 	   56.0000 	    3.1894 
    1.0605 	   19.8090 	   23.0000 	   56.0000 	    3.2244 
    1.1673 	   19.8255 	   23.0000 	   56.0000 	    3.2574 
    1.1368 	   19.8425 	   23.0000 	   56.0000 	    3.2914 
    1.1215 	   19.8585 	   23.0000 	   56.0000 	    3.3234 
    1.1826 	   19.8745 	   23.0000 	   56.0000 	    3.3554 
    1.1978 	   19.8915 	   23.0000 	   56.0000 	    3.3894 
    1.1215 	   19.9080 	   23.0000 	   56.0000 	    3.4224 
    1.2284 	   19.9245 	   23.0000 	   56.0000 	    3.4554 
    1.1215 	   19.9410 	   23.0000 	   56.0000 	    3.4884 
    1.2131 	   19.9580 	   23.0000 	   56.0000 	    3.5224 
    0.9995 	   19.9745 	   23.0000 	   56.0000 	    3.5554 
    1.0147 	   19.9910 	   23.0000 	   56.0000 	    3.5884 
    1.0452 	   20.0080 	   23.0000 	   56.0000 	    3.6224 
    1.0758 	   20.0250 	   23.0000 	   56.0000 	    3.6564 
    1.0300 	   20.0430 	   23.0000 	   56.0000 	    3.6924 
    1.0605 	   20.0595 	   23.0000 	   56.0000 	    3.7254 
    1.0758 	   20.0775 	   23.0000 	   56.0000 	    3.7614 
    1.1826 	   20.0960 	   23.0000 	   56.0000 	    3.7984 
    1.1215 	   20.1125 	   23.0000 	   56.0000 	    3.8314 
    0.9842 	   20.1305 	   23.0000 	   56.0000 	    3.8674 
    1.2284 	   20.1485 	   23.0000 	   56.0000 	    3.9034 
    1.1063 	   20.1655 	   23.0000 	   56.0000 	    3.9374 
    1.1673 	   20.1825 	   23.0000 	   56.0000 	    3.9715 
    1.1978 	   20.1995 	   23.0000 	   56.0000 	    4.0055 
    1.1673 	   20.2165 	   23.0000 	   56.0000 	    4.0395 
    1.1673 	   20.2325 	   23.0000 	   56.0000 	    4.0715 
    1.0147 	   20.2495 	   23.0000 	   56.0000 	    4.1055 
    1.0758 	   20.2680 	   23.0000 	   56.0000 	    4.1425 
    0.9232 	   20.2865 	   23.0000 	   56.0000 	    4.1795 
    1.0910 	   20.3060 	   23.0000 	   56.0000 	    4.2185 
    1.0758 	   20.3245 	   23.0000 	   56.0000 	    4.2555 
    1.1673 	   20.3435 	   23.0000 	   56.0000 	    4.2935 
    1.2741 	   20.3625 	   23.0000 	   56.0000 	    4.3315 
    0.8316 	   20.3810 	   23.0000 	   56.0000 	    4.3685 
    1.2131 	   20.3995 	   23.0000 	   56.0000 	    4.4055 
    1.0910 	   20.4180 	   23.0000 	   56.0000 	    4.4425 
    1.0605 	   20.4360 	   23.0000 	   56.0000 	    4.4785 
    1.0758 	   20.4555 	   23.0000 	   56.0000 	    4.5175 
    1.0910 	   20.4745 	   23.0000 	   56.0000 	    4.5555 
    1.1063 	   20.4935 	   23.0000 	   56.0000 	    4.5935 
    1.1063 	   20.5130 	   23.0000 	   56.0000 	    4.6325 
    1.0605 	   20.5315 	   23.0000 	   56.0000 	    4.6695 
    1.1215 	   20.5525 	   23.0000 	   56.0000 	    4.7115 
    0.9995 	   20.5705 	   23.0000 	   56.0000 	    4.7475 
    1.0910 	   20.5905 	   23.0000 	   56.0000 	    4.7875 
    0.9079 	   20.6100 	   23.0000 	   56.0000 	    4.8265 
    1.1826 	   20.6285 	   23.0000 	   56.0000 	    4.8635 
    1.0452 	   20.6475 	   23.0000 	   56.0000 	    4.9015 
    1.2131 	   20.6665 	   23.0000 	   56.0000 	    4.9395 
    1.1673 	   20.6860 	   23.0000 	   56.0000 	    4.9785 
    1.1521 	   20.7060 	   23.0000 	   56.0000 	    5.0185 
    1.0758 	   20.7240 	   23.0000 	   56.0000 	    5.0545 
    1.0605 	   20.7430 	   23.0000 	   56.0000 	    5.0925 
    1.1368 	   20.7620 	   23.0000 	   56.0000 	    5.1305 
    0.9689 	   20.7810 	   23.0000 	   56.0000 	    5.1685 
    1.1215 	   20.8010 	   23.0000 	   56.0000 	    5.2085 
    1.1978 	   20.8195 	   23.0000 	   56.0000 	    5.2455 
    1.1826 	   20.8390 	   23.0000 	   56.0000 	    5.2845 
    1.0300 	   20.8575 	   23.0000 	   56.0000 	    5.3215 
    1.3199 	   20.8765 	   23.0000 	   56.0000 	    5.3595 
    1.1368 	   20.8950 	   23.0000 	   56.0000 	    5.3965 
    1.0758 	   20.9130 	   23.0000 	   56.0000 	    5.4325 
    1.1826 	   20.9325 	   23.0000 	   56.0000 	    5.4715 
    1.1978 	   20.9525 	   23.0000 	   56.0000 	    5.5115 
    1.1978 	   20.9710 	   23.0000 	   56.0000 	    5.5485 
    1.2894 	   20.9905 	   23.0000 	   56.0000 	    5.5875 
    1.0758 	   21.0100 	   23.0000 	   56.0000 	    5.6265 
    1.2284 	   21.0285 	   23.0000 	   56.0000 	    5.6635 
    1.2741 	   21.0490 	   23.0000 	   56.0000 	    5.7046 
    1.1826 	   21.0675 	   23.0000 	   56.0000 	    5.7416 
    0.9232 	   21.0870 	   23.0000 	   56.0000 	    5.7806 
    0.9995 	   21.1055 	   23.0000 	   56.0000 	    5.8176 
    0.9995 	   21.1240 	   23.0000 	   56.0000 	    5.8546 
    1.0910 	   21.1430 	   23.0000 	   56.0000 	    5.8926 
    1.1978 	   21.1620 	   23.0000 	   56.0000 	    5.9306 
    1.1368 	   21.1825 	   23.0000 	   56.0000 	    5.9716 
    1.0910 	   21.2000 	   23.0000 	   56.0000 	    6.0066 
    1.1521 	   21.2170 	   23.0000 	   56.0000 	    6.0406 
    1.2284 	   21.2345 	   23.0000 	   56.0000 	    6.0756 
    1.2894 	   21.2510 	   23.0000 	   56.0000 	    6.1086 
    1.1978 	   21.2680 	   23.0000 	   56.0000 	    6.1426 
    1.1063 	   21.2850 	   23.0000 	   56.0000 	    6.1766 
    1.2589 	   21.3020 	   23.0000 	   56.0000 	    6.2106 
    1.1978 	   21.3195 	   23.0000 	   56.0000 	    6.2456 
    1.1063 	   21.3360 	   23.0000 	   56.0000 	    6.2786 
    1.0910 	   21.3530 	   23.0000 	   56.0000 	    6.3126 
    1.1063 	   21.3695 	   23.0000 	   56.0000 	    6.3456 
    1.1521 	   21.3880 	   23.0000 	   56.0000 	    6.3826 
    1.0758 	   21.4070 	   23.0000 	   56.0000 	    6.4206 
    1.3199 	   21.4255 	   23.0000 	   56.0000 	    6.4576 
    1.2741 	   21.4450 	   23.0000 	   56.0000 	    6.4966 
    1.1063 	   21.4645 	   23.0000 	   56.0000 	    6.5356 
    1.1215 	   21.4845 	   23.0000 	   56.0000 	    6.5756 
    1.3199 	   21.5040 	   23.0000 	   56.0000 	    6.6146 
    1.2589 	   21.5245 	   23.0000 	   56.0000 	    6.6556 
    1.2284 	   21.5450 	   23.0000 	   56.0000 	    6.6966 
    1.2284 	   21.5625 	   23.0000 	   56.0000 	    6.7316 
    1.3199 	   21.5800 	   23.0000 	   56.0000 	    6.7666 
    1.3352 	   21.5970 	   23.0000 	   56.0000 	    6.8006 
    1.3199 	   21.6135 	   23.0000 	   56.0000 	    6.8336 
    1.1368 	   21.6305 	   23.0000 	   56.0000 	    6.8676 
    1.0300 	   21.6475 	   23.0000 	   56.0000 	    6.9016 
    1.1368 	   21.6645 	   23.0000 	   56.0000 	    6.9356 
    1.1521 	   21.6830 	   23.0000 	   56.0000 	    6.9726 
    1.1978 	   21.7020 	   23.0000 	   56.0000 	    7.0106 
    1.1673 	   21.7220 	   23.0000 	   56.0000 	    7.0506 
    1.3199 	   21.7400 	   23.0000 	   56.0000 	    7.0866 
    1.1673 	   21.7565 	   23.0000 	   56.0000 	    7.1196 
    1.2131 	   21.7745 	   23.0000 	   56.0000 	    7.1556 
    1.0758 	   21.7925 	   23.0000 	   56.0000 	    7.1916 
    1.0758 	   21.8120 	   23.0000 	   56.0000 	    7.2306 
    1.1521 	   21.8310 	   23.0000 	   56.0000 	    7.2686 
    1.2589 	   21.8500 	   23.0000 	   56.0000 	    7.3066 
    1.1063 	   21.8695 	   23.0000 	   56.0000 	    7.3456 
    1.1368 	   21.8875 	   23.0000 	   56.0000 	    7.3816 
    1.1368 	   21.9070 	   23.0000 	   56.0000 	    7.4206 
    1.1673 	   21.9265 	   23.0000 	   56.0000 	    7.4597 
    1.2436 	   21.9455 	   23.0000 	   56.0000 	    7.4977 
    1.1215 	   21.9655 	   23.0000 	   56.0000 	    7.5377 
    1.2741 	   21.9845 	   23.0000 	   56.0000 	    7.5757 
    1.3504 	   22.0040 	   23.0000 	   56.0000 	    7.6147 
    1.1826 	   22.0235 	   23.0000 	   56.0000 	    7.6537 
    1.1826 	   22.0440 	   23.0000 	   56.0000 	    7.6947 
    1.2589 	   22.0615 	   23.0000 	   56.0000 	    7.7297 
    1.0147 	   22.0785 	   23.0000 	   56.0000 	    7.7637 
    1.1826 	   22.0955 	   23.0000 	   56.0000 	    7.7977 
    0.9232 	   22.1145 	   23.0000 	   56.0000 	    7.8357 
    1.1063 	   22.1335 	   23.0000 	   56.0000 	    7.8737 
    1.1673 	   22.1525 	   23.0000 	   56.0000 	    7.9117 
    1.0758 	   22.1705 	   23.0000 	   56.0000 	    7.9477 
    1.2436 	   22.1900 	   23.0000 	   56.0000 	    7.9867 
    1.2589 	   22.2090 	   23.0000 	   56.0000 	    8.0247 
    1.0452 	   22.2280 	   23.0000 	   56.0000 	    8.0627 
    1.1978 	   22.2480 	   23.0000 	   56.0000 	    8.1027 
    1.0758 	   22.2660 	   23.0000 	   56.0000 	    8.1387 
    1.2589 	   22.2855 	   23.0000 	   56.0000 	    8.1777 
    1.1673 	   22.3045 	   23.0000 	   56.0000 	    8.2157 
    1.1368 	   22.3240 	   23.0000 	   56.0000 	    8.2547 
    1.1673 	   22.3425 	   23.0000 	   56.0000 	    8.2917 
    1.3046 	   22.3600 	   23.0000 	   56.0000 	    8.3267 
    1.3199 	   22.3765 	   23.0000 	   56.0000 	    8.3597 
    1.2741 	   22.3940 	   23.0000 	   56.0000 	    8.3947 
    1.3352 	   22.4115 	   23.0000 	   56.0000 	    8.4297 
    1.0758 	   22.4285 	   23.0000 	   56.0000 	    8.4637 
    1.1978 	   22.4455 	   23.0000 	   56.0000 	    8.4977 
    1.2894 	   22.4630 	   23.0000 	   56.0000 	    8.5327 
    1.2741 	   22.4800 	   23.0000 	   56.0000 	    8.5667 
    0.9995 	   22.4980 	   23.0000 	   56.0000 	    8.6027 
    1.2436 	   22.5150 	   23.0000 	   56.0000 	    8.6367 
    1.1673 	   22.5340 	   23.0000 	   56.0000 	    8.6747 
    1.1215 	   22.5535 	   23.0000 	   56.0000 	    8.7137 
    1.1673 	   22.5710 	   23.0000 	   56.0000 	    8.7487 
    1.1521 	   22.5890 	   23.0000 	   56.0000 	    8.7847 
    1.2436 	   22.6060 	   23.0000 	   56.0000 	    8.8187 
    1.1063 	   22.6235 	   23.0000 	   56.0000 	    8.8537 
    1.0147 	   22.6410 	   23.0000 	   56.0000 	    8.8887 
    1.2589 	   22.6580 	   23.0000 	   56.0000 	    8.9227 
    1.1978 	   22.6750 	   23.0000 	   56.0000 	    8.9567 
    1.2589 	   22.6925 	   23.0000 	   56.0000 	    8.9917 
    1.1978 	   22.7100 	   23.0000 	   56.0000 	    9.0267 
    1.2131 	   22.7265 	   23.0000 	   56.0000 	    9.0597 
    1.4267 	   22.7455 	   23.0000 	   56.0000 	    9.0977 
    1.3352 	   22.7650 	   23.0000 	   56.0000 	    9.1367 
    1.2284 	   22.7835 	   23.0000 	   56.0000 	    9.1737 
    1.3352 	   22.8010 	   23.0000 	   56.0000 	    9.2088 
    1.1978 	   22.8180 	   23.0000 	   56.0000 	    9.2428 
    1.2284 	   22.8350 	   23.0000 	   56.0000 	    9.2768 
    1.1978 	   22.8525 	   23.0000 	   56.0000 	    9.3118 
    1.2436 	   22.8700 	   23.0000 	   56.0000 	    9.3468 
    1.1826 	   22.8875 	   23.0000 	   56.0000 	    9.3818 
    1.2284 	   22.9040 	   23.0000 	   56.0000 	    9.4148 
    1.2284 	   22.9210 	   23.0000 	   56.0000 	    9.4488 
    1.1826 	   22.9385 	   23.0000 	   56.0000 	    9.4838 
    1.3504 	   22.9560 	   23.0000 	   56.0000 	    9.5188 
    1.1521 	   22.9735 	   23.0000 	   56.0000 	    9.5538 
    1.1978 	   22.9905 	   23.0000 	   56.0000 	    9.5878 
    1.2589 	   23.0085 	   23.0000 	   56.0000 	    9.6238 
    1.3199 	   23.0260 	   23.0000 	   56.0000 	    9.6588 
    1.1521 	   23.0445 	   23.0000 	   56.0000 	    9.6958 
    1.1215 	   23.0620 	   23.0000 	   56.0000 	    9.7308 
    1.0605 	   23.0790 	   23.0000 	   56.0000 	    9.7648 
    1.3352 	   23.0960 	   23.0000 	   56.0000 	    9.7988 
    1.3046 	   23.1135 	   23.0000 	   56.0000 	    9.8338 
    1.1521 	   23.1305 	   23.0000 	   56.0000 	    9.8678 
    1.1673 	   23.1480 	   23.0000 	   56.0000 	    9.9028 
    1.1368 	   23.1650 	   23.0000 	   56.0000 	    9.9368 
    0.9995 	   23.1835 	   23.0000 	   56.0000 	    9.9738 
    1.4420 	   23.2010 	   23.0000 	   56.0000 	   10.0088 
    1.1978 	   23.2180 	   23.0000 	   56.0000 	   10.0428 
    1.1978 	   23.2350 	   23.0000 	   56.0000 	   10.0768 
    1.2741 	   23.2520 	   23.0000 	   56.0000 	   10.1108 
    1.2436 	   23.2705 	   23.0000 	   56.0000 	   10.1478 
    1.1978 	   23.2905 	   23.0000 	   56.0000 	   10.1878 
    1.2589 	   23.3100 	   23.0000 	   56.0000 	   10.2268 
    1.3046 	   23.3295 	   23.0000 	   56.0000 	   10.2658 
    1.1063 	   23.3495 	   23.0000 	   56.0000 	   10.3058 
    1.1978 	   23.3690 	   23.0000 	   56.0000 	   10.3448 
    1.2894 	   23.3890 	   23.0000 	   56.0000 	   10.3848 
    1.3046 	   23.4085 	   23.0000 	   56.0000 	   10.4238 
    1.1673 	   23.4280 	   23.0000 	   56.0000 	   10.4628 
    1.1368 	   23.4470 	   23.0000 	   56.0000 	   10.5008 
    1.2894 	   23.4670 	   23.0000 	   56.0000 	   10.5408 
    1.2131 	   23.4860 	   23.0000 	   56.0000 	   10.5788 
    1.1521 	   23.5050 	   23.0000 	   56.0000 	   10.6168 
    1.2894 	   23.5240 	   23.0000 	   56.0000 	   10.6548 
    1.1673 	   23.5435 	   23.0000 	   56.0000 	   10.6938 
    1.3352 	   23.5640 	   23.0000 	   56.0000 	   10.7348 
    1.2131 	   23.5840 	   23.0000 	   56.0000 	   10.7748 
    1.2284 	   23.6030 	   23.0000 	   56.0000 	   10.8128 
    1.1826 	   23.6235 	   23.0000 	   56.0000 	   10.8538 
    1.2436 	   23.6420 	   23.0000 	   56.0000 	   10.8908 
    1.2741 	   23.6620 	   23.0000 	   56.0000 	   10.9308 
    1.2131 	   23.6810 	   23.0000 	   56.0000 	   10.9689 
    1.2894 	   23.7005 	   23.0000 	   56.0000 	   11.0079 
    1.1673 	   23.7195 	   23.0000 	   56.0000 	   11.0459 
    1.2284 	   23.7390 	   23.0000 	   56.0000 	   11.0849 
    1.3962 	   23.7595 	   23.0000 	   56.0000 	   11.1259 
    1.2436 	   23.7785 	   23.0000 	   56.0000 	   11.1639 
    1.2894 	   23.7970 	   23.0000 	   56.0000 	   11.2009 
    1.2589 	   23.8170 	   23.0000 	   56.0000 	   11.2409 
    1.2894 	   23.8370 	   23.0000 	   56.0000 	   11.2809 
    1.2284 	   23.8570 	   23.0000 	   56.0000 	   11.3199 
    1.3199 	   23.8765 	   23.0000 	   56.0000 	   11.3589 
    1.2284 	   23.8955 	   23.0000 	   56.0000 	   11.3969 
    1.3809 	   23.9140 	   23.0000 	   56.0000 	   11.4339 
    1.2894 	   23.9325 	   23.0000 	   56.0000 	   11.4709 
    1.2741 	   23.9495 	   23.0000 	   56.0000 	   11.5049 
    1.2894 	   23.9675 	   23.0000 	   56.0000 	   11.5409 
    1.2436 	   23.9845 	   23.0000 	   56.0000 	   11.5749 
    1.2436 	   24.0020 	   23.0000 	   56.0000 	   11.6099 
    1.2131 	   24.0195 	   23.0000 	   56.0000 	   11.6449 
    1.2284 	   24.0385 	   23.0000 	   56.0000 	   11.6829 
    1.2894 	   24.0560 	   23.0000 	   56.0000 	   11.7179 
    0.9537 	   24.0735 	   23.0000 	   56.0000 	   11.7529 
    1.3046 	   24.0910 	   23.0000 	   56.0000 	   11.7879 
    1.2741 	   24.1090 	   23.0000 	   56.0000 	   11.8239 
    1.3046 	   24.1265 	   23.0000 	   56.0000 	   11.8589 
    1.1673 	   24.1440 	   23.0000 	   56.0000 	   11.8939 
    1.2436 	   24.1610 	   23.0000 	   56.0000 	   11.9279 
    1.3809 	   24.1795 	   23.0000 	   56.0000 	   11.9649 
    1.2589 	   24.1985 	   23.0000 	   56.0000 	   12.0029 
    1.2589 	   24.2180 	   23.0000 	   56.0000 	   12.0419 
    1.3352 	   24.2375 	   23.0000 	   56.0000 	   12.0809 
    1.0452 	   24.2570 	   23.0000 	   56.0000 	   12.1199 
    1.2284 	   24.2765 	   23.0000 	   56.0000 	   12.1589 
    1.1826 	   24.2965 	   23.0000 	   56.0000 	   12.1989 
    1.2436 	   24.3170 	   23.0000 	   56.0000 	   12.2399 
    1.1826 	   24.3370 	   23.0000 	   56.0000 	   12.2799 
    1.2436 	   24.3580 	   23.0000 	   56.0000 	   12.3219 
    1.2436 	   24.3765 	   23.0000 	   56.0000 	   12.3589 
    1.2284 	   24.3945 	   23.0000 	   56.0000 	   12.3949 
    1.3199 	   24.4125 	   23.0000 	   56.0000 	   12.4309 
    1.1063 	   24.4330 	   23.0000 	   56.0000 	   12.4719 
    1.3504 	   24.4525 	   23.0000 	   56.0000 	   12.5109 
    1.3504 	   24.4725 	   23.0000 	   56.0000 	   12.5509 
    1.1673 	   24.4915 	   23.0000 	   56.0000 	   12.5889 
    1.2741 	   24.5115 	   23.0000 	   56.0000 	   12.6289 
    1.3199 	   24.5300 	   23.0000 	   56.0000 	   12.6659 
    1.1673 	   24.5495 	   23.0000 	   56.0000 	   12.7050 
    1.2589 	   24.5675 	   23.0000 	   56.0000 	   12.7410 
    1.3504 	   24.5850 	   23.0000 	   56.0000 	   12.7760 
    1.3199 	   24.6030 	   23.0000 	   56.0000 	   12.8120 
    1.2894 	   24.6205 	   23.0000 	   56.0000 	   12.8470 
    1.2284 	   24.6390 	   23.0000 	   56.0000 	   12.8840 
    1.1063 	   24.6575 	   23.0000 	   56.0000 	   12.9210 
    1.2131 	   24.6750 	   23.0000 	   56.0000 	   12.9560 
    1.1826 	   24.6930 	   23.0000 	   56.0000 	   12.9920 
    1.1215 	   24.7100 	   23.0000 	   56.0000 	   13.0260 
    1.2436 	   24.7275 	   23.0000 	   56.0000 	   13.0610 
    1.3046 	   24.7445 	   23.0000 	   56.0000 	   13.0950 
    1.2894 	   24.7620 	   23.0000 	   56.0000 	   13.1300 
    1.3352 	   24.7795 	   23.0000 	   56.0000 	   13.1650 
    1.2284 	   24.7965 	   23.0000 	   56.0000 	   13.1990 
    1.4115 	   24.8145 	   23.0000 	   56.0000 	   13.2350 
    1.2589 	   24.8315 	   23.0000 	   56.0000 	   13.2690 
    1.3657 	   24.8505 	   23.0000 	   56.0000 	   13.3070 
    1.2436 	   24.8690 	   23.0000 	   56.0000 	   13.3440 
    1.3809 	   24.8865 	   23.0000 	   56.0000 	   13.3790 
    1.3199 	   24.9040 	   23.0000 	   56.0000 	   13.4140 
    1.2284 	   24.9210 	   23.0000 	   56.0000 	   13.4480 
    1.3504 	   24.9385 	   23.0000 	   56.0000 	   13.4830 
    0.9995 	   24.9575 	   23.0000 	   56.0000 	   13.5210 
    1.2741 	   24.9765 	   23.0000 	   56.0000 	   13.5590 
    1.2284 	   24.9940 	   23.0000 	   56.0000 	   13.5940 
    1.2284 	   25.0110 	   23.0000 	   56.0000 	   13.6280 
    1.4115 	   25.0285 	   23.0000 	   56.0000 	   13.6630 
    1.3809 	   25.0480 	   23.0000 	   56.0000 	   13.7020 
    1.1521 	   25.0660 	   23.0000 	   56.0000 	   13.7380 
    1.3962 	   25.0835 	   23.0000 	   56.0000 	   13.7730 
    1.4267 	   25.1015 	   23.0000 	   56.0000 	   13.8090 
    1.2436 	   25.1195 	   23.0000 	   56.0000 	   13.8450 
    1.4267 	   25.1385 	   23.0000 	   56.0000 	   13.8830 
    1.2436 	   25.1565 	   23.0000 	   56.0000 	   13.9190 
    1.3046 	   25.1745 	   23.0000 	   56.0000 	   13.9550 
    1.3657 	   25.1925 	   23.0000 	   56.0000 	   13.9910 
    1.1978 	   25.2100 	   23.0000 	   56.0000 	   14.0260 
    1.3046 	   25.2280 	   23.0000 	   56.0000 	   14.0620 
    1.1673 	   25.2460 	   23.0000 	   56.0000 	   14.0980 
    1.2589 	   25.2630 	   23.0000 	   56.0000 	   14.1320 
    1.3046 	   25.2810 	   23.0000 	   56.0000 	   14.1680 
    1.3504 	   25.2995 	   23.0000 	   56.0000 	   14.2050 
    1.2589 	   25.3180 	   23.0000 	   56.0000 	   14.2420 
    1.1521 	   25.3355 	   23.0000 	   56.0000 	   14.2770 
    1.1673 	   25.3540 	   23.0000 	   56.0000 	   14.3140 
    1.1063 	   25.3730 	   23.0000 	   56.0000 	   14.3520 
    1.4420 	   25.3910 	   23.0000 	   56.0000 	   14.3880 
    1.3199 	   25.4085 	   23.0000 	   56.0000 	   14.4230 
    1.3046 	   25.4265 	   23.0000 	   56.0000 	   14.4591 
    1.2284 	   25.4440 	   23.0000 	   56.0000 	   14.4941 
    1.1521 	   25.4615 	   23.0000 	   56.0000 	   14.5291 
    1.3352 	   25.4790 	   23.0000 	   56.0000 	   14.5641 
    1.3809 	   25.4975 	   23.0000 	   56.0000 	   14.6011 
    1.4420 	   25.5155 	   23.0000 	   56.0000 	   14.6371 
    1.1978 	   25.5330 	   23.0000 	   56.0000 	   14.6721 
    1.2589 	   25.5525 	   23.0000 	   56.0000 	   14.7111 
    1.1521 	   25.5705 	   23.0000 	   56.0000 	   14.7471 
    1.2894 	   25.5885 	   23.0000 	   56.0000 	   14.7831 
    1.1978 	   25.6060 	   23.0000 	   56.0000 	   14.8181 
    0.9842 	   25.6235 	   23.0000 	   56.0000 	   14.8531 
    1.3504 	   25.6415 	   23.0000 	   56.0000 	   14.8891 
    1.4115 	   25.6595 	   23.0000 	   56.0000 	   14.9251 
    1.2589 	   25.6775 	   23.0000 	   56.0000 	   14.9611 
    1.3504 	   25.6950 	   23.0000 	   56.0000 	   14.9961 
    1.2436 	   25.7125 	   23.0000 	   56.0000 	   15.0311 
    1.2131 	   25.7305 	   23.0000 	   56.0000 	   15.0671 
    1.2741 	   25.7485 	   23.0000 	   56.0000 	   15.1031 
    1.2436 	   25.7670 	   23.0000 	   56.0000 	   15.1401 
    1.2131 	   25.7855 	   23.0000 	   56.0000 	   15.1771 
    1.3504 	   25.8030 	   23.0000 	   56.0000 	   15.2121 
    1.2741 	   25.8210 	   23.0000 	   56.0000 	   15.2481 
    1.2436 	   25.8395 	   23.0000 	   56.0000 	   15.2851 
    1.4115 	   25.8585 	   23.0000 	   56.0000 	   15.3231 
    1.3352 	   25.8775 	   23.0000 	   56.0000 	   15.3611 
    1.3657 	   25.8970 	   23.0000 	   56.0000 	   15.4001 
    1.3046 	   25.9160 	   23.0000 	   56.0000 	   15.4381 
    1.1826 	   25.9370 	   23.0000 	   56.0000 	   15.4801 
    1.2284 	   25.9565 	   23.0000 	   56.0000 	   15.5191 
    1.3199 	   25.9755 	   23.0000 	   56.0000 	   15.5571 
    1.3046 	   25.9960 	   23.0000 	   56.0000 	   15.5981 
    1.3809 	   26.0155 	   23.0000 	   56.0000 	   15.6371 
    1.2894 	   26.0365 	   23.0000 	   56.0000 	   15.6791 
    1.0758 	   26.0560 	   23.0000 	   56.0000 	   15.7181 
    1.2894 	   26.0735 	   23.0000 	   56.0000 	   15.7531 
    1.1978 	   26.0915 	   23.0000 	   56.0000 	   15.7891 
    1.1521 	   26.1110 	   23.0000 	   56.0000 	   15.8281 
    1.3352 	   26.1300 	   23.0000 	   56.0000 	   15.8661 
    1.2284 	   26.1480 	   23.0000 	   56.0000 	   15.9021 
    1.3657 	   26.1650 	   23.0000 	   56.0000 	   15.9361 
    1.2741 	   26.1825 	   23.0000 	   56.0000 	   15.9711 
    1.3199 	   26.2005 	   23.0000 	   56.0000 	   16.0071 
    1.3962 	   26.2190 	   23.0000 	   56.0000 	   16.0441 
    1.3352 	   26.2365 	   23.0000 	   56.0000 	   16.0791 
    1.3809 	   26.2540 	   23.0000 	   56.0000 	   16.1141 
    1.4725 	   26.2745 	   23.0000 	   56.0000 	   16.1551 
    1.3809 	   26.2925 	   23.0000 	   56.0000 	   16.1912 
    1.0452 	   26.3105 	   23.0000 	   56.0000 	   16.2272 
    1.3352 	   26.3285 	   23.0000 	   56.0000 	   16.2632 
    1.5335 	   26.3470 	   23.0000 	   56.0000 	   16.3002 
    1.3504 	   26.3660 	   23.0000 	   56.0000 	   16.3382 
    1.3809 	   26.3865 	   23.0000 	   56.0000 	   16.3792 
    1.4878 	   26.4060 	   23.0000 	   56.0000 	   16.4182 
    1.3809 	   26.4265 	   23.0000 	   56.0000 	   16.4592 
    1.3046 	   26.4455 	   23.0000 	   56.0000 	   16.4972 
    1.2741 	   26.4660 	   23.0000 	   56.0000 	   16.5382 
    1.4267 	   26.4870 	   23.0000 	   56.0000 	   16.5802 
    1.3046 	   26.5070 	   23.0000 	   56.0000 	   16.6202 
    1.4115 	   26.5295 	   23.0000 	   56.0000 	   16.6652 
    1.2284 	   26.5515 	   23.0000 	   56.0000 	   16.7092 
    1.2894 	   26.5715 	   23.0000 	   56.0000 	   16.7492 
    1.2894 	   26.5910 	   23.0000 	   56.0000 	   16.7882 
    1.3352 	   26.6110 	   23.0000 	   56.0000 	   16.8282 
    1.5183 	   26.6305 	   23.0000 	   56.0000 	   16.8672 
    1.4420 	   26.6515 	   23.0000 	   56.0000 	   16.9092 
    1.4115 	   26.6705 	   23.0000 	   56.0000 	   16.9472 
    1.3199 	   26.6900 	   23.0000 	   56.0000 	   16.9862 
    1.2894 	   26.7100 	   23.0000 	   56.0000 	   17.0262 
    1.0300 	   26.7300 	   23.0000 	   56.0000 	   17.0662 
    1.3352 	   26.7500 	   23.0000 	   56.0000 	   17.1062 
    1.2589 	   26.7700 	   23.0000 	   56.0000 	   17.1462 
    1.3352 	   26.7890 	   23.0000 	   56.0000 	   17.1842 
    1.3046 	   26.8085 	   23.0000 	   56.0000 	   17.2232 
    1.5946 	   26.8285 	   23.0000 	   56.0000 	   17.2632 
    1.4267 	   26.8485 	   23.0000 	   56.0000 	   17.3032 
    1.3657 	   26.8690 	   23.0000 	   56.0000 	   17.3442 
    1.3809 	   26.8885 	   23.0000 	   56.0000 	   17.3832 
    1.3504 	   26.9095 	   23.0000 	   56.0000 	   17.4252 
    1.3809 	   26.9285 	   23.0000 	   56.0000 	   17.4632 
    1.2741 	   26.9490 	   23.0000 	   56.0000 	   17.5042 
    1.2589 	   26.9685 	   23.0000 	   56.0000 	   17.5432 
    1.3504 	   26.9890 	   23.0000 	   56.0000 	   17.5842 
    1.0910 	   27.0095 	   23.0000 	   56.0000 	   17.6252 
    1.1978 	   27.0295 	   23.0000 	   56.0000 	   17.6652 
    1.4115 	   27.0515 	   23.0000 	   56.0000 	   17.7092 
    1.3046 	   27.0705 	   23.0000 	   56.0000 	   17.7472 
    1.5030 	   27.0905 	   23.0000 	   56.0000 	   17.7872 
    1.1521 	   27.1100 	   23.0000 	   56.0000 	   17.8262 
    1.3504 	   27.1290 	   23.0000 	   56.0000 	   17.8642 
    1.4572 	   27.1490 	   23.0000 	   56.0000 	   17.9042 
    1.3504 	   27.1695 	   23.0000 	   56.0000 	   17.9453 
    1.2131 	   27.1895 	   23.0000 	   56.0000 	   17.9853 
    1.3046 	   27.2095 	   23.0000 	   56.0000 	   18.0253 
    1.3962 	   27.2295 	   23.0000 	   56.0000 	   18.0653 
    1.3504 	   27.2500 	   23.0000 	   56.0000 	   18.1063 
    1.4115 	   27.2700 	   23.0000 	   56.0000 	   18.1463 
    1.2284 	   27.2900 	   23.0000 	   56.0000 	   18.1863 
    1.4725 	   27.3085 	   23.0000 	   56.0000 	   18.2233 
    1.4115 	   27.3280 	   23.0000 	   56.0000 	   18.2623 
    1.3962 	   27.3470 	   23.0000 	   56.0000 	   18.3003 
    1.2894 	   27.3665 	   23.0000 	   56.0000 	   18.3393 
    1.3657 	   27.3880 	   23.0000 	   56.0000 	   18.3823 
    1.2894 	   27.4070 	   23.0000 	   56.0000 	   18.4203 
    1.4572 	   27.4270 	   23.0000 	   56.0000 	   18.4603 
    1.3504 	   27.4470 	   23.0000 	   56.0000 	   18.5003 
    1.3504 	   27.4670 	   23.0000 	   56.0000 	   18.5403 
    1.3809 	   27.4875 	   23.0000 	   56.0000 	   18.5813 
    1.2894 	   27.5070 	   23.0000 	   56.0000 	   18.6203 
    1.3809 	   27.5270 	   23.0000 	   56.0000 	   18.6603 
    1.4115 	   27.5485 	   23.0000 	   56.0000 	   18.7033 
    1.3657 	   27.5680 	   23.0000 	   56.0000 	   18.7423 
    1.5183 	   27.5885 	   23.0000 	   56.0000 	   18.7833 
    1.4115 	   27.6090 	   23.0000 	   56.0000 	   18.8243 
    1.5183 	   27.6295 	   23.0000 	   56.0000 	   18.8653 
    1.5030 	   27.6505 	   23.0000 	   56.0000 	   18.9073 
    1.2894 	   27.6705 	   23.0000 	   56.0000 	   18.9473 
    1.3962 	   27.6910 	   23.0000 	   56.0000 	   18.9883 
    1.4115 	   27.7115 	   23.0000 	   56.0000 	   19.0293 
    1.3809 	   27.7305 	   23.0000 	   56.0000 	   19.0673 
    1.2589 	   27.7510 	   23.0000 	   56.0000 	   19.1083 
    1.1826 	   27.7710 	   23.0000 	   56.0000 	   19.1483 
    1.3199 	   27.7910 	   23.0000 	   56.0000 	   19.1883 
    1.3657 	   27.8115 	   23.0000 	   56.0000 	   19.2293 
    1.4725 	   27.8315 	   23.0000 	   56.0000 	   19.2693 
    1.3352 	   27.8515 	   23.0000 	   56.0000 	   19.3093 
    1.3657 	   27.8715 	   23.0000 	   56.0000 	   19.3493 
    1.4878 	   27.8915 	   23.0000 	   56.0000 	   19.3893 
    1.3199 	   27.9110 	   23.0000 	   56.0000 	   19.4283 
    1.5183 	   27.9310 	   23.0000 	   56.0000 	   19.4683 
    1.3809 	   27.9510 	   23.0000 	   56.0000 	   19.5083 
    1.4115 	   27.9715 	   23.0000 	   56.0000 	   19.5493 
    1.4420 	   27.9915 	   23.0000 	   56.0000 	   19.5893 
    1.5335 	   28.0115 	   23.0000 	   56.0000 	   19.6293 
    1.4267 	   28.0305 	   23.0000 	   56.0000 	   19.6673 
    1.3657 	   28.0525 	   23.0000 	   56.0000 	   19.7114 
    1.3962 	   28.0720 	   23.0000 	   56.0000 	   19.7504 
    1.3657 	   28.0910 	   23.0000 	   56.0000 	   19.7884 
    1.3504 	   28.1110 	   23.0000 	   56.0000 	   19.8284 
    1.4878 	   28.1305 	   23.0000 	   56.0000 	   19.8674 
    1.5335 	   28.1515 	   23.0000 	   56.0000 	   19.9094 
    1.4115 	   28.1715 	   23.0000 	   56.0000 	   19.9494 
    1.4420 	   28.1910 	   23.0000 	   56.0000 	   19.9884 
    1.4267 	   28.2115 	   23.0000 	   56.0000 	   20.0294 
    1.4725 	   28.2310 	   23.0000 	   56.0000 	   20.0684 
    1.4267 	   28.2505 	   23.0000 	   56.0000 	   20.1074 
    1.3962 	   28.2710 	   23.0000 	   56.0000 	   20.1484 
    1.3809 	   28.2905 	   23.0000 	   56.0000 	   20.1874 
    1.4115 	   28.3090 	   23.0000 	   56.0000 	   20.2244 
    1.3962 	   28.3280 	   23.0000 	   56.0000 	   20.2624 
    1.3809 	   28.3455 	   23.0000 	   56.0000 	   20.2974 
    1.5793 	   28.3625 	   23.0000 	   56.0000 	   20.3314 
    1.3199 	   28.3805 	   23.0000 	   56.0000 	   20.3674 
    1.1673 	   28.3980 	   23.0000 	   56.0000 	   20.4024 
    1.4115 	   28.4155 	   23.0000 	   56.0000 	   20.4374 
    1.3504 	   28.4330 	   23.0000 	   56.0000 	   20.4724 
    1.4115 	   28.4510 	   23.0000 	   56.0000 	   20.5084 
    1.3657 	   28.4695 	   23.0000 	   56.0000 	   20.5454 
    1.4878 	   28.4895 	   23.0000 	   56.0000 	   20.5854 
    1.3657 	   28.5070 	   23.0000 	   56.0000 	   20.6204 
    1.4267 	   28.5250 	   23.0000 	   56.0000 	   20.6564 
    1.3046 	   28.5440 	   23.0000 	   56.0000 	   20.6944 
    1.3504 	   28.5615 	   23.0000 	   56.0000 	   20.7294 
    1.4115 	   28.5805 	   23.0000 	   56.0000 	   20.7674 
    1.3504 	   28.5975 	   23.0000 	   56.0000 	   20.8014 
    1.4115 	   28.6155 	   23.0000 	   56.0000 	   20.8374 
    1.1368 	   28.6330 	   23.0000 	   56.0000 	   20.8724 
    1.4725 	   28.6510 	   23.0000 	   56.0000 	   20.9084 
    1.5793 	   28.6685 	   23.0000 	   56.0000 	   20.9434 
    1.5030 	   28.6880 	   23.0000 	   56.0000 	   20.9824 
    1.3962 	   28.7085 	   23.0000 	   56.0000 	   21.0234 
    1.4267 	   28.7285 	   23.0000 	   56.0000 	   21.0634 
    1.4115 	   28.7485 	   23.0000 	   56.0000 	   21.1034 
    1.5946 	   28.7675 	   23.0000 	   56.0000 	   21.1414 
    1.4115 	   28.7880 	   23.0000 	   56.0000 	   21.1824 
    1.3199 	   28.8080 	   23.0000 	   56.0000 	   21.2224 
    1.2894 	   28.8280 	   23.0000 	   56.0000 	   21.2624 
    1.5335 	   28.8480 	   23.0000 	   56.0000 	   21.3024 
    1.4572 	   28.8680 	   23.0000 	   56.0000 	   21.3424 
    1.4420 	   28.8885 	   23.0000 	   56.0000 	   21.3834 
    1.4572 	   28.9095 	   23.0000 	   56.0000 	   21.4254 
    1.3657 	   28.9290 	   23.0000 	   56.0000 	   21.4645 
    1.3809 	   28.9485 	   23.0000 	   56.0000 	   21.5035 
    1.4267 	   28.9690 	   23.0000 	   56.0000 	   21.5445 
    1.3657 	   28.9885 	   23.0000 	   56.0000 	   21.5835 
    1.1673 	   29.0080 	   23.0000 	   56.0000 	   21.6225 
    1.4725 	   29.0285 	   23.0000 	   56.0000 	   21.6635 
    1.4115 	   29.0500 	   23.0000 	   56.0000 	   21.7065 
    1.5183 	   29.0700 	   23.0000 	   56.0000 	   21.7465 
    1.4725 	   29.0895 	   23.0000 	   56.0000 	   21.7855 
    1.5183 	   29.1090 	   23.0000 	   56.0000 	   21.8245 
    1.3962 	   29.1300 	   23.0000 	   56.0000 	   21.8665 
    1.4878 	   29.1495 	   23.0000 	   56.0000 	   21.9055 
    1.4725 	   29.1695 	   23.0000 	   56.0000 	   21.9455 
    1.5335 	   29.1895 	   23.0000 	   56.0000 	   21.9855 
    1.5335 	   29.2090 	   23.0000 	   56.0000 	   22.0245 
    1.5488 	   29.2290 	   23.0000 	   56.0000 	   22.0645 
    1.4878 	   29.2485 	   23.0000 	   56.0000 	   22.1035 
    1.4420 	   29.2680 	   23.0000 	   56.0000 	   22.1425 
    1.2894 	   29.2875 	   23.0000 	   56.0000 	   22.1815 
    1.5793 	   29.3055 	   23.0000 	   56.0000 	   22.2175 
    1.5335 	   29.3230 	   23.0000 	   56.0000 	   22.2525 
    1.1673 	   29.3425 	   23.0000 	   56.0000 	   22.2915 
    1.5793 	   29.3620 	   23.0000 	   56.0000 	   22.3305 
    1.6403 	   29.3790 	   23.0000 	   56.0000 	   22.3645 
    1.4572 	   29.3980 	   23.0000 	   56.0000 	   22.4025 
    1.3504 	   29.4170 	   23.0000 	   56.0000 	   22.4405 
    1.3504 	   29.4355 	   23.0000 	   56.0000 	   22.4775 
    1.4115 	   29.4530 	   23.0000 	   56.0000 	   22.5125 
    1.4267 	   29.4720 	   23.0000 	   56.0000 	   22.5505 
    1.4267 	   29.4925 	   23.0000 	   56.0000 	   22.5915 
    1.3657 	   29.5135 	   23.0000 	   56.0000 	   22.6335 
    1.3809 	   29.5335 	   23.0000 	   56.0000 	   22.6735 
    1.6098 	   29.5540 	   23.0000 	   56.0000 	   22.7145 
    1.4115 	   29.5730 	   23.0000 	   56.0000 	   22.7525 
    1.5335 	   29.5930 	   23.0000 	   56.0000 	   22.7925 
    1.5488 	   29.6135 	   23.0000 	   56.0000 	   22.8335 
    1.3199 	   29.6345 	   23.0000 	   56.0000 	   22.8755 
    1.6251 	   29.6555 	   23.0000 	   56.0000 	   22.9175 
    1.5183 	   29.6750 	   23.0000 	   56.0000 	   22.9565 
    1.4420 	   29.6945 	   23.0000 	   56.0000 	   22.9955 
    1.3962 	   29.7150 	   23.0000 	   56.0000 	   23.0365 
    1.4420 	   29.7350 	   23.0000 	   56.0000 	   23.0765 
    1.5183 	   29.7560 	   23.0000 	   56.0000 	   23.1185 
    1.4725 	   29.7760 	   23.0000 	   56.0000 	   23.1585 
    1.3352 	   29.7965 	   23.0000 	   56.0000 	   23.1996 
    1.4420 	   29.8170 	   23.0000 	   56.0000 	   23.2406 
    1.4572 	   29.8370 	   23.0000 	   56.0000 	   23.2806 
    1.5946 	   29.8560 	   23.0000 	   56.0000 	   23.3186 
    1.5335 	   29.8760 	   23.0000 	   56.0000 	   23.3586 
    1.4420 	   29.8965 	   23.0000 	   56.0000 	   23.3996 
    1.4572 	   29.9175 	   23.0000 	   56.0000 	   23.4416 
    1.5335 	   29.9370 	   23.0000 	   56.0000 	   23.4806 
    1.4725 	   29.9570 	   23.0000 	   56.0000 	   23.5206 
    1.4420 	   29.9765 	   23.0000 	   56.0000 	   23.5596 
    1.3504 	   29.9980 	   23.0000 	   56.0000 	   23.6026 
    1.4420 	   30.0185 	   23.0000 	   56.0000 	   23.6436 
    1.5640 	   30.0395 	   23.0000 	   56.0000 	   23.6856 
    1.1521 	   30.0610 	   23.0000 	   56.0000 	   23.7286 
    1.5030 	   30.0820 	   23.0000 	   56.0000 	   23.7706 
    1.4878 	   30.1015 	   23.0000 	   56.0000 	   23.8096 
    1.4878 	   30.1215 	   23.0000 	   56.0000 	   23.8496 
    1.6403 	   30.1420 	   23.0000 	   56.0000 	   23.8906 
    1.5030 	   30.1625 	   23.0000 	   56.0000 	   23.9316 
    1.5946 	   30.1825 	   23.0000 	   56.0000 	   23.9716 
    1.2894 	   30.2035 	   23.0000 	   56.0000 	   24.0136 
    1.5946 	   30.2225 	   23.0000 	   56.0000 	   24.0516 
    1.5183 	   30.2425 	   23.0000 	   56.0000 	   24.0916 
    1.4725 	   30.2620 	   23.0000 	   56.0000 	   24.1306 
    1.5183 	   30.2830 	   23.0000 	   56.0000 	   24.1726 
    1.5946 	   30.3030 	   23.0000 	   56.0000 	   24.2126 
    1.4267 	   30.3235 	   23.0000 	   56.0000 	   24.2536 
    1.5640 	   30.3435 	   23.0000 	   56.0000 	   24.2936 
    1.5946 	   30.3635 	   23.0000 	   56.0000 	   24.3336 
    1.5640 	   30.3830 	   23.0000 	   56.0000 	   24.3726 
    1.5030 	   30.4040 	   23.0000 	   56.0000 	   24.4146 
    1.5793 	   30.4235 	   23.0000 	   56.0000 	   24.4536 
    1.5640 	   30.4440 	   23.0000 	   56.0000 	   24.4946 
    1.5946 	   30.4660 	   23.0000 	   56.0000 	   24.5386 
    1.3962 	   30.4860 	   23.0000 	   56.0000 	   24.5786 
    1.5488 	   30.5050 	   23.0000 	   56.0000 	   24.6166 
    1.2741 	   30.5255 	   23.0000 	   56.0000 	   24.6576 
    1.6556 	   30.5455 	   23.0000 	   56.0000 	   24.6976 
    1.6098 	   30.5660 	   23.0000 	   56.0000 	   24.7386 
    1.4878 	   30.5860 	   23.0000 	   56.0000 	   24.7786 
    1.5335 	   30.6065 	   23.0000 	   56.0000 	   24.8196 
    1.3962 	   30.6260 	   23.0000 	   56.0000 	   24.8586 
    1.4725 	   30.6455 	   23.0000 	   56.0000 	   24.8976 
    1.6556 	   30.6650 	   23.0000 	   56.0000 	   24.9366 
    1.4725 	   30.6860 	   23.0000 	   56.0000 	   24.9787 
    1.5335 	   30.7060 	   23.0000 	   56.0000 	   25.0187 
    1.4115 	   30.7260 	   23.0000 	   56.0000 	   25.0587 
    1.5183 	   30.7465 	   23.0000 	   56.0000 	   25.0997 
    1.5793 	   30.7660 	   23.0000 	   56.0000 	   25.1387 
    1.7472 	   30.7865 	   23.0000 	   56.0000 	   25.1797 
    1.5946 	   30.8065 	   23.0000 	   56.0000 	   25.2197 
    1.6098 	   30.8275 	   23.0000 	   56.0000 	   25.2617 
    1.6098 	   30.8475 	   23.0000 	   56.0000 	   25.3017 
    1.6556 	   30.8675 	   23.0000 	   56.0000 	   25.3417 
    1.6098 	   30.8870 	   23.0000 	   56.0000 	   25.3807 
    1.5640 	   30.9075 	   23.0000 	   56.0000 	   25.4217 
    1.5640 	   30.9275 	   23.0000 	   56.0000 	   25.4617 
    1.4878 	   30.9480 	   23.0000 	   56.0000 	   25.5027 
    1.4725 	   30.9685 	   23.0000 	   56.0000 	   25.5437 
    1.5946 	   30.9880 	   23.0000 	   56.0000 	   25.5827 
    1.6251 	   31.0060 	   23.0000 	   56.0000 	   25.6187 
    1.5183 	   31.0245 	   23.0000 	   56.0000 	   25.6557 
    1.4878 	   31.0435 	   23.0000 	   56.0000 	   25.6937 
    1.5488 	   31.0625 	   23.0000 	   56.0000 	   25.7317 
    1.5488 	   31.0815 	   23.0000 	   56.0000 	   25.7697 
    1.6556 	   31.1005 	   23.0000 	   56.0000 	   25.8077 
    1.4878 	   31.1185 	   23.0000 	   56.0000 	   25.8437 
    1.5946 	   31.1370 	   23.0000 	   56.0000 	   25.8807 
    1.6556 	   31.1560 	   23.0000 	   56.0000 	   25.9187 
    1.4725 	   31.1735 	   23.0000 	   56.0000 	   25.9537 
    1.6098 	   31.1920 	   23.0000 	   56.0000 	   25.9907 
    1.5793 	   31.2095 	   23.0000 	   56.0000 	   26.0257 
    1.6403 	   31.2275 	   23.0000 	   56.0000 	   26.0617 
    1.6861 	   31.2480 	   23.0000 	   56.0000 	   26.1027 
    1.6709 	   31.2685 	   23.0000 	   56.0000 	   26.1437 
    1.5640 	   31.2880 	   23.0000 	   56.0000 	   26.1827 
    1.7014 	   31.3070 	   23.0000 	   56.0000 	   26.2207 
    1.5488 	   31.3275 	   23.0000 	   56.0000 	   26.2617 
    1.5335 	   31.3475 	   23.0000 	   56.0000 	   26.3017 
    1.5640 	   31.3670 	   23.0000 	   56.0000 	   26.3407 
    1.4878 	   31.3870 	   23.0000 	   56.0000 	   26.3807 
    1.5030 	   31.4070 	   23.0000 	   56.0000 	   26.4207 
    1.6709 	   31.4265 	   23.0000 	   56.0000 	   26.4597 
    1.5640 	   31.4465 	   23.0000 	   56.0000 	   26.4997 
    1.6403 	   31.4660 	   23.0000 	   56.0000 	   26.5387 
    1.4878 	   31.4860 	   23.0000 	   56.0000 	   26.5777 
    1.4115 	   31.5065 	   23.0000 	   56.0000 	   26.6197 
    1.5946 	   31.5255 	   23.0000 	   56.0000 	   26.6577 
    1.6403 	   31.5455 	   23.0000 	   56.0000 	   26.6978 
    1.6098 	   31.5660 	   23.0000 	   56.0000 	   26.7388 
    1.5488 	   31.5860 	   23.0000 	   56.0000 	   26.7788 
    1.6403 	   31.6070 	   23.0000 	   56.0000 	   26.8208 
    1.5488 	   31.6275 	   23.0000 	   56.0000 	   26.8618 
    1.5640 	   31.6470 	   23.0000 	   56.0000 	   26.9008 
    1.5335 	   31.6665 	   23.0000 	   56.0000 	   26.9398 
    1.5488 	   31.6870 	   23.0000 	   56.0000 	   26.9808 
    1.5640 	   31.7055 	   23.0000 	   56.0000 	   27.0178 
    1.5183 	   31.7255 	   23.0000 	   56.0000 	   27.0578 
    1.6556 	   31.7450 	   23.0000 	   56.0000 	   27.0968 
    1.7166 	   31.7650 	   23.0000 	   56.0000 	   27.1368 
    1.6861 	   31.7855 	   23.0000 	   56.0000 	   27.1778 
    1.5640 	   31.8060 	   23.0000 	   56.0000 	   27.2188 
    1.5946 	   31.8260 	   23.0000 	   56.0000 	   27.2588 
    1.6709 	   31.8440 	   23.0000 	   56.0000 	   27.2948 
    1.5183 	   31.8635 	   23.0000 	   56.0000 	   27.3338 
    1.6098 	   31.8840 	   23.0000 	   56.0000 	   27.3748 
    1.7014 	   31.9040 	   23.0000 	   56.0000 	   27.4148 
    1.5335 	   31.9235 	   23.0000 	   56.0000 	   27.4538 
    1.3504 	   31.9430 	   23.0000 	   56.0000 	   27.4928 
    1.6403 	   31.9635 	   23.0000 	   56.0000 	   27.5338 
    1.6403 	   31.9830 	   23.0000 	   56.0000 	   27.5728 
    1.5488 	   32.0025 	   23.0000 	   56.0000 	   27.6118 
    1.5793 	   32.0225 	   23.0000 	   56.0000 	   27.6518 
    1.3504 	   32.0445 	   23.0000 	   56.0000 	   27.6958 
    1.7319 	   32.0640 	   23.0000 	   56.0000 	   27.7348 
    1.5488 	   32.0835 	   23.0000 	   56.0000 	   27.7738 
    1.7166 	   32.1030 	   23.0000 	   56.0000 	   27.8128 
    1.5946 	   32.1225 	   23.0000 	   56.0000 	   27.8518 
    1.5488 	   32.1435 	   23.0000 	   56.0000 	   27.8938 
    1.7166 	   32.1630 	   23.0000 	   56.0000 	   27.9328 
    1.6861 	   32.1825 	   23.0000 	   56.0000 	   27.9718 
    1.6556 	   32.2045 	   23.0000 	   56.0000 	   28.0158 
    1.6556 	   32.2250 	   23.0000 	   56.0000 	   28.0568 
    1.6861 	   32.2445 	   23.0000 	   56.0000 	   28.0958 
    1.5793 	   32.2650 	   23.0000 	   56.0000 	   28.1368 
    1.5946 	   32.2855 	   23.0000 	   56.0000 	   28.1778 
    1.7319 	   32.3065 	   23.0000 	   56.0000 	   28.2198 
    1.5488 	   32.3270 	   23.0000 	   56.0000 	   28.2608 
    1.6709 	   32.3475 	   23.0000 	   56.0000 	   28.3018 
    1.6251 	   32.3680 	   23.0000 	   56.0000 	   28.3428 
    1.5488 	   32.3870 	   23.0000 	   56.0000 	   28.3808 
    1.5793 	   32.4075 	   23.0000 	   56.0000 	   28.4219 
    1.6709 	   32.4280 	   23.0000 	   56.0000 	   28.4629 
    1.6556 	   32.4480 	   23.0000 	   56.0000 	   28.5029 
    1.7472 	   32.4695 	   23.0000 	   56.0000 	   28.5459 
    1.6098 	   32.4895 	   23.0000 	   56.0000 	   28.5859 
    1.6403 	   32.5120 	   23.0000 	   56.0000 	   28.6309 
    1.7777 	   32.5320 	   23.0000 	   56.0000 	   28.6709 
    1.7777 	   32.5515 	   23.0000 	   56.0000 	   28.7099 
    1.5946 	   32.5720 	   23.0000 	   56.0000 	   28.7509 
    1.7014 	   32.5925 	   23.0000 	   56.0000 	   28.7909 
    1.7472 	   32.6140 	   23.0000 	   56.0000 	   28.8339 
    1.7472 	   32.6345 	   23.0000 	   56.0000 	   28.8749 
    1.5946 	   32.6540 	   23.0000 	   56.0000 	   28.9139 
    1.6251 	   32.6755 	   23.0000 	   56.0000 	   28.9569 
    1.6861 	   32.6960 	   23.0000 	   56.0000 	   28.9979 
    1.6861 	   32.7165 	   23.0000 	   56.0000 	   29.0389 
    1.7166 	   32.7365 	   23.0000 	   56.0000 	   29.0789 
    1.6251 	   32.7580 	   23.0000 	   56.0000 	   29.1219 
    1.6251 	   32.7780 	   23.0000 	   56.0000 	   29.1619 
    1.7014 	   32.7970 	   23.0000 	   56.0000 	   29.1999 
    1.7166 	   32.8175 	   23.0000 	   56.0000 	   29.2409 
    1.7319 	   32.8380 	   23.0000 	   56.0000 	   29.2819 
    1.6556 	   32.8580 	   23.0000 	   56.0000 	   29.3219 
    1.5030 	   32.8790 	   23.0000 	   56.0000 	   29.3639 
    1.6709 	   32.8995 	   23.0000 	   56.0000 	   29.4049 
    1.6251 	   32.9200 	   23.0000 	   56.0000 	   29.4459 
    1.6861 	   32.9405 	   23.0000 	   56.0000 	   29.4869 
    1.6709 	   32.9610 	   23.0000 	   56.0000 	   29.5279 
    1.7014 	   32.9815 	   23.0000 	   56.0000 	   29.5689 
    1.6556 	   33.0015 	   23.0000 	   56.0000 	   29.6089 
    1.5488 	   33.0215 	   23.0000 	   56.0000 	   29.6489 
    1.3199 	   33.0430 	   23.0000 	   56.0000 	   29.6919 
    1.6098 	   33.0630 	   23.0000 	   56.0000 	   29.7319 
    1.6556 	   33.0845 	   23.0000 	   56.0000 	   29.7749 
    1.7929 	   33.1045 	   23.0000 	   56.0000 	   29.8149 
    1.6251 	   33.1250 	   23.0000 	   56.0000 	   29.8559 
    1.6556 	   33.1455 	   23.0000 	   56.0000 	   29.8969 
    1.7319 	   33.1655 	   23.0000 	   56.0000 	   29.9369 
    1.7319 	   33.1860 	   23.0000 	   56.0000 	   29.9779 
    1.7014 	   33.2055 	   23.0000 	   56.0000 	   30.0169 
    1.5488 	   33.2250 	   23.0000 	   56.0000 	   30.0559 
    1.6709 	   33.2455 	   23.0000 	   56.0000 	   30.0969 
    1.6556 	   33.2660 	   23.0000 	   56.0000 	   30.1379 
    1.5335 	   33.2860 	   23.0000 	   56.0000 	   30.1779 
    1.6251 	   33.3065 	   23.0000 	   56.0000 	   30.2190 
    1.7624 	   33.3285 	   23.0000 	   56.0000 	   30.2630 
    1.7777 	   33.3480 	   23.0000 	   56.0000 	   30.3020 
    1.6556 	   33.3660 	   23.0000 	   56.0000 	   30.3380 
    1.7472 	   33.3845 	   23.0000 	   56.0000 	   30.3750 
    1.7624 	   33.4030 	   23.0000 	   56.0000 	   30.4120 
    1.7319 	   33.4210 	   23.0000 	   56.0000 	   30.4480 
    1.7777 	   33.4390 	   23.0000 	   56.0000 	   30.4840 
    1.4267 	   33.4585 	   23.0000 	   56.0000 	   30.5230 
    1.6861 	   33.4780 	   23.0000 	   56.0000 	   30.5620 
    1.7014 	   33.4965 	   23.0000 	   56.0000 	   30.5990 
    1.7319 	   33.5155 	   23.0000 	   56.0000 	   30.6370 
    1.7472 	   33.5360 	   23.0000 	   56.0000 	   30.6780 
    1.6861 	   33.5555 	   23.0000 	   56.0000 	   30.7170 
    1.5946 	   33.5760 	   23.0000 	   56.0000 	   30.7580 
    1.6251 	   33.5960 	   23.0000 	   56.0000 	   30.7980 
    1.6861 	   33.6170 	   23.0000 	   56.0000 	   30.8400 
    1.6861 	   33.6370 	   23.0000 	   56.0000 	   30.8800 
    1.6251 	   33.6580 	   23.0000 	   56.0000 	   30.9220 
    1.6098 	   33.6780 	   23.0000 	   56.0000 	   30.9620 
    1.7166 	   33.6985 	   23.0000 	   56.0000 	   31.0030 
    1.7319 	   33.7180 	   23.0000 	   56.0000 	   31.0420 
    1.7166 	   33.7400 	   23.0000 	   56.0000 	   31.0860 
    1.6403 	   33.7610 	   23.0000 	   56.0000 	   31.1280 
    1.8692 	   33.7815 	   23.0000 	   56.0000 	   31.1690 
    1.6861 	   33.8015 	   23.0000 	   56.0000 	   31.2090 
    1.8540 	   33.8230 	   23.0000 	   56.0000 	   31.2520 
    1.7014 	   33.8420 	   23.0000 	   56.0000 	   31.2900 
    1.8082 	   33.8600 	   23.0000 	   56.0000 	   31.3260 
    1.6709 	   33.8785 	   23.0000 	   56.0000 	   31.3630 
    1.7166 	   33.8965 	   23.0000 	   56.0000 	   31.3990 
    1.6861 	   33.9145 	   23.0000 	   56.0000 	   31.4350 
    1.7929 	   33.9330 	   23.0000 	   56.0000 	   31.4720 
    1.6556 	   33.9505 	   23.0000 	   56.0000 	   31.5070 
    1.7319 	   33.9695 	   23.0000 	   56.0000 	   31.5450 
    1.8082 	   33.9875 	   23.0000 	   56.0000 	   31.5810 
    1.7624 	   34.0075 	   23.0000 	   56.0000 	   31.6210 
    1.7014 	   34.0270 	   23.0000 	   56.0000 	   31.6600 
    1.6251 	   34.0495 	   23.0000 	   56.0000 	   31.7050 
    1.7777 	   34.0705 	   23.0000 	   56.0000 	   31.7470 
    1.5946 	   34.0890 	   23.0000 	   56.0000 	   31.7840 
    1.8692 	   34.1075 	   23.0000 	   56.0000 	   31.8210 
    1.7624 	   34.1250 	   23.0000 	   56.0000 	   31.8560 
    1.8235 	   34.1430 	   23.0000 	   56.0000 	   31.8920 
    1.7319 	   34.1625 	   23.0000 	   56.0000 	   31.9310 
    1.7777 	   34.1820 	   23.0000 	   56.0000 	   31.9701 
    1.4725 	   34.2000 	   23.0000 	   56.0000 	   32.0061 
    1.4267 	   34.2195 	   23.0000 	   56.0000 	   32.0451 
    1.7777 	   34.2390 	   23.0000 	   56.0000 	   32.0841 
    1.7624 	   34.2595 	   23.0000 	   56.0000 	   32.1251 
    1.7777 	   34.2815 	   23.0000 	   56.0000 	   32.1691 
    1.7777 	   34.3000 	   23.0000 	   56.0000 	   32.2061 
    1.8235 	   34.3180 	   23.0000 	   56.0000 	   32.2421 
    1.7929 	   34.3365 	   23.0000 	   56.0000 	   32.2791 
    1.8235 	   34.3560 	   23.0000 	   56.0000 	   32.3181 
    1.6861 	   34.3745 	   23.0000 	   56.0000 	   32.3551 
    1.7166 	   34.3930 	   23.0000 	   56.0000 	   32.3921 
    1.5946 	   34.4115 	   23.0000 	   56.0000 	   32.4291 
    1.9303 	   34.4295 	   23.0000 	   56.0000 	   32.4651 
    1.6709 	   34.4485 	   23.0000 	   56.0000 	   32.5031 
    1.6861 	   34.4680 	   23.0000 	   56.0000 	   32.5421 
    1.8540 	   34.4860 	   23.0000 	   56.0000 	   32.5781 
    1.6098 	   34.5045 	   23.0000 	   56.0000 	   32.6151 
    1.7624 	   34.5255 	   23.0000 	   56.0000 	   32.6571 
    1.6556 	   34.5455 	   23.0000 	   56.0000 	   32.6971 
    1.8082 	   34.5650 	   23.0000 	   56.0000 	   32.7361 
    1.7624 	   34.5835 	   23.0000 	   56.0000 	   32.7731 
    1.5183 	   34.6015 	   23.0000 	   56.0000 	   32.8091 
    1.7929 	   34.6195 	   23.0000 	   56.0000 	   32.8451 
    1.7319 	   34.6380 	   23.0000 	   56.0000 	   32.8821 
    1.7777 	   34.6565 	   23.0000 	   56.0000 	   32.9191 
    1.7166 	   34.6750 	   23.0000 	   56.0000 	   32.9561 
    1.5793 	   34.6930 	   23.0000 	   56.0000 	   32.9921 
    1.7929 	   34.7115 	   23.0000 	   56.0000 	   33.0291 
    1.7929 	   34.7320 	   23.0000 	   56.0000 	   33.0701 
    1.4115 	   34.7510 	   23.0000 	   56.0000 	   33.1081 
    1.6709 	   34.7695 	   23.0000 	   56.0000 	   33.1451 
    1.8997 	   34.7880 	   23.0000 	   56.0000 	   33.1821 
    1.7166 	   34.8060 	   23.0000 	   56.0000 	   33.2181 
    1.7472 	   34.8250 	   23.0000 	   56.0000 	   33.2561 
    1.7472 	   34.8435 	   23.0000 	   56.0000 	   33.2931 
    1.7166 	   34.8615 	   23.0000 	   56.0000 	   33.3291 
    1.7319 	   34.8800 	   23.0000 	   56.0000 	   33.3661 
    1.7624 	   34.8985 	   23.0000 	   56.0000 	   33.4031 
    1.8082 	   34.9170 	   23.0000 	   56.0000 	   33.4401 
    1.7624 	   34.9360 	   23.0000 	   56.0000 	   33.4781 
    1.7472 	   34.9540 	   23.0000 	   56.0000 	   33.5141 
    1.5640 	   34.9735 	   23.0000 	   56.0000 	   33.5531 
    1.8845 	   34.9930 	   23.0000 	   56.0000 	   33.5921 
    1.7472 	   35.0120 	   23.0000 	   56.0000 	   33.6301 
    1.7166 	   35.0310 	   23.0000 	   56.0000 	   33.6682 
    1.9150 	   35.0530 	   23.0000 	   56.0000 	   33.7122 
    1.7319 	   35.0720 	   23.0000 	   56.0000 	   33.7502 
    1.7319 	   35.0900 	   23.0000 	   56.0000 	   33.7862 
    1.7472 	   35.1085 	   23.0000 	   56.0000 	   33.8232 
    1.6709 	   35.1275 	   23.0000 	   56.0000 	   33.8612 
    1.7624 	   35.1470 	   23.0000 	   56.0000 	   33.9002 
    1.6709 	   35.1680 	   23.0000 	   56.0000 	   33.9422 
    1.7624 	   35.1890 	   23.0000 	   56.0000 	   33.9842 
    1.6861 	   35.2095 	   23.0000 	   56.0000 	   34.0252 
    1.7777 	   35.2300 	   23.0000 	   56.0000 	   34.0662 
    1.8387 	   35.2500 	   23.0000 	   56.0000 	   34.1062 
    1.8845 	   35.2705 	   23.0000 	   56.0000 	   34.1472 
    1.8540 	   35.2920 	   23.0000 	   56.0000 	   34.1902 
    1.8082 	   35.3125 	   23.0000 	   56.0000 	   34.2312 
    1.8387 	   35.3335 	   23.0000 	   56.0000 	   34.2732 
    1.7319 	   35.3535 	   23.0000 	   56.0000 	   34.3132 
    1.7929 	   35.3735 	   23.0000 	   56.0000 	   34.3532 
    1.4878 	   35.3935 	   23.0000 	   56.0000 	   34.3932 
    1.6861 	   35.4140 	   23.0000 	   56.0000 	   34.4342 
    1.6861 	   35.4350 	   23.0000 	   56.0000 	   34.4762 
    1.9303 	   35.4540 	   23.0000 	   56.0000 	   34.5142 
    1.8082 	   35.4745 	   23.0000 	   56.0000 	   34.5552 
    1.7929 	   35.4945 	   23.0000 	   56.0000 	   34.5952 
    1.8235 	   35.5155 	   23.0000 	   56.0000 	   34.6372 
    1.8235 	   35.5355 	   23.0000 	   56.0000 	   34.6772 
    1.7472 	   35.5565 	   23.0000 	   56.0000 	   34.7192 
    1.6556 	   35.5765 	   23.0000 	   56.0000 	   34.7592 
    1.7166 	   35.5975 	   23.0000 	   56.0000 	   34.8012 
    1.7166 	   35.6190 	   23.0000 	   56.0000 	   34.8442 
    1.6709 	   35.6395 	   23.0000 	   56.0000 	   34.8852 
    1.8235 	   35.6600 	   23.0000 	   56.0000 	   34.9262 
    1.8540 	   35.6795 	   23.0000 	   56.0000 	   34.9652 
    1.8082 	   35.6995 	   23.0000 	   56.0000 	   35.0052 
    1.8082 	   35.7205 	   23.0000 	   56.0000 	   35.0472 
    1.7319 	   35.7405 	   23.0000 	   56.0000 	   35.0872 
    1.8997 	   35.7600 	   23.0000 	   56.0000 	   35.1262 
    1.9608 	   35.7815 	   23.0000 	   56.0000 	   35.1692 
    1.8540 	   35.8025 	   23.0000 	   56.0000 	   35.2112 
    1.7166 	   35.8235 	   23.0000 	   56.0000 	   35.2532 
    1.8692 	   35.8435 	   23.0000 	   56.0000 	   35.2932 
    1.9455 	   35.8640 	   23.0000 	   56.0000 	   35.3342 
    1.7777 	   35.8850 	   23.0000 	   56.0000 	   35.3762 
    1.7166 	   35.9055 	   23.0000 	   56.0000 	   35.4173 
    1.7777 	   35.9265 	   23.0000 	   56.0000 	   35.4593 
    1.7319 	   35.9475 	   23.0000 	   56.0000 	   35.5013 
    1.8997 	   35.9675 	   23.0000 	   56.0000 	   35.5413 
    1.8235 	   35.9875 	   23.0000 	   56.0000 	   35.5813 
    1.9608 	   36.0080 	   23.0000 	   56.0000 	   35.6223 
    1.8387 	   36.0290 	   23.0000 	   56.0000 	   35.6643 
    1.8997 	   36.0515 	   23.0000 	   56.0000 	   35.7093 
    1.8235 	   36.0720 	   23.0000 	   56.0000 	   35.7503 
    1.7624 	   36.0930 	   23.0000 	   56.0000 	   35.7923 
    1.9150 	   36.1140 	   23.0000 	   56.0000 	   35.8343 
    1.8845 	   36.1350 	   23.0000 	   56.0000 	   35.8763 
    1.9760 	   36.1560 	   23.0000 	   56.0000 	   35.9183 
    1.7472 	   36.1770 	   23.0000 	   56.0000 	   35.9603 
    2.0066 	   36.1970 	   23.0000 	   56.0000 	   36.0003 
    1.9760 	   36.2180 	   23.0000 	   56.0000 	   36.0423 
    1.8540 	   36.2395 	   23.0000 	   56.0000 	   36.0853 
    1.7777 	   36.2600 	   23.0000 	   56.0000 	   36.1263 
    1.8997 	   36.2800 	   23.0000 	   56.0000 	   36.1663 
    1.8540 	   36.2985 	   23.0000 	   56.0000 	   36.2033 
    1.6251 	   36.3170 	   23.0000 	   56.0000 	   36.2403 
    1.8845 	   36.3355 	   23.0000 	   56.0000 	   36.2773 
    1.9608 	   36.3535 	   23.0000 	   56.0000 	   36.3133 
    1.8235 	   36.3720 	   23.0000 	   56.0000 	   36.3503 
    1.7014 	   36.3905 	   23.0000 	   56.0000 	   36.3873 
    1.8235 	   36.4090 	   23.0000 	   56.0000 	   36.4243 
    1.9760 	   36.4295 	   23.0000 	   56.0000 	   36.4653 
    1.9303 	   36.4490 	   23.0000 	   56.0000 	   36.5043 
    1.7624 	   36.4685 	   23.0000 	   56.0000 	   36.5433 
    1.8387 	   36.4865 	   23.0000 	   56.0000 	   36.5793 
    1.8997 	   36.5060 	   23.0000 	   56.0000 	   36.6183 
    1.8387 	   36.5260 	   23.0000 	   56.0000 	   36.6583 
    1.7777 	   36.5445 	   23.0000 	   56.0000 	   36.6953 
    1.9150 	   36.5630 	   23.0000 	   56.0000 	   36.7323 
    1.9303 	   36.5820 	   23.0000 	   56.0000 	   36.7703 
    1.5030 	   36.6005 	   23.0000 	   56.0000 	   36.8073 
    1.8540 	   36.6190 	   23.0000 	   56.0000 	   36.8443 
    1.8540 	   36.6380 	   23.0000 	   56.0000 	   36.8823 
    1.9303 	   36.6565 	   23.0000 	   56.0000 	   36.9193 
    1.8845 	   36.6765 	   23.0000 	   56.0000 	   36.9593 
    1.8540 	   36.6955 	   23.0000 	   56.0000 	   36.9973 
    1.9760 	   36.7140 	   23.0000 	   56.0000 	   37.0343 
    1.9608 	   36.7330 	   23.0000 	   56.0000 	   37.0723 
    1.9150 	   36.7520 	   23.0000 	   56.0000 	   37.1103 
    1.6251 	   36.7710 	   23.0000 	   56.0000 	   37.1483 
    1.7319 	   36.7910 	   23.0000 	   56.0000 	   37.1884 
    1.8845 	   36.8105 	   23.0000 	   56.0000 	   37.2274 
    1.9760 	   36.8305 	   23.0000 	   56.0000 	   37.2674 
    1.7166 	   36.8525 	   23.0000 	   56.0000 	   37.3114 
    1.9455 	   36.8730 	   23.0000 	   56.0000 	   37.3524 
    1.9760 	   36.8930 	   23.0000 	   56.0000 	   37.3924 
    1.8235 	   36.9140 	   23.0000 	   56.0000 	   37.4344 
    1.9150 	   36.9370 	   23.0000 	   56.0000 	   37.4794 
    1.9303 	   36.9575 	   23.0000 	   56.0000 	   37.5214 
    1.8845 	   36.9785 	   23.0000 	   56.0000 	   37.5634 
    2.1286 	   36.9985 	   23.0000 	   56.0000 	   37.6034 
    1.8692 	   37.0195 	   23.0000 	   56.0000 	   37.6454 
    1.9150 	   37.0415 	   23.0000 	   56.0000 	   37.6894 
    1.8387 	   37.0630 	   23.0000 	   56.0000 	   37.7324 
    1.9150 	   37.0835 	   23.0000 	   56.0000 	   37.7734 
    1.9150 	   37.1035 	   23.0000 	   56.0000 	   37.8134 
    2.0676 	   37.1230 	   23.0000 	   56.0000 	   37.8524 
    2.1286 	   37.1450 	   23.0000 	   56.0000 	   37.8964 
    1.8997 	   37.1660 	   23.0000 	   56.0000 	   37.9384 
    1.9608 	   37.1860 	   23.0000 	   56.0000 	   37.9784 
    1.9760 	   37.2075 	   23.0000 	   56.0000 	   38.0214 
    2.0523 	   37.2285 	   23.0000 	   56.0000 	   38.0634 
    2.0371 	   37.2485 	   23.0000 	   56.0000 	   38.1034 
    1.7929 	   37.2690 	   23.0000 	   56.0000 	   38.1444 
    1.9303 	   37.2900 	   23.0000 	   56.0000 	   38.1864 
    1.9608 	   37.3095 	   23.0000 	   56.0000 	   38.2254 
    2.0066 	   37.3300 	   23.0000 	   56.0000 	   38.2664 
    2.0218 	   37.3495 	   23.0000 	   56.0000 	   38.3054 
    1.7166 	   37.3695 	   23.0000 	   56.0000 	   38.3454 
    1.9760 	   37.3895 	   23.0000 	   56.0000 	   38.3854 
    1.9913 	   37.4090 	   23.0000 	   56.0000 	   38.4244 
    1.8387 	   37.4300 	   23.0000 	   56.0000 	   38.4664 
    1.9303 	   37.4505 	   23.0000 	   56.0000 	   38.5074 
    1.9455 	   37.4705 	   23.0000 	   56.0000 	   38.5474 
    1.9608 	   37.4915 	   23.0000 	   56.0000 	   38.5894 
    1.9150 	   37.5120 	   23.0000 	   56.0000 	   38.6304 
    2.0981 	   37.5330 	   23.0000 	   56.0000 	   38.6724 
    1.9760 	   37.5545 	   23.0000 	   56.0000 	   38.7154 
    1.8997 	   37.5750 	   23.0000 	   56.0000 	   38.7564 
    2.0371 	   37.5950 	   23.0000 	   56.0000 	   38.7964 
    2.0676 	   37.6160 	   23.0000 	   56.0000 	   38.8384 
    1.8845 	   37.6365 	   23.0000 	   56.0000 	   38.8794 
    2.0676 	   37.6580 	   23.0000 	   56.0000 	   38.9225 
    2.0371 	   37.6785 	   23.0000 	   56.0000 	   38.9635 
    1.8235 	   37.6995 	   23.0000 	   56.0000 	   39.0055 
    1.7777 	   37.7200 	   23.0000 	   56.0000 	   39.0465 
    1.8540 	   37.7410 	   23.0000 	   56.0000 	   39.0885 
    1.8997 	   37.7610 	   23.0000 	   56.0000 	   39.1285 
    2.0218 	   37.7825 	   23.0000 	   56.0000 	   39.1715 
    1.9455 	   37.8035 	   23.0000 	   56.0000 	   39.2135 
    1.9760 	   37.8240 	   23.0000 	   56.0000 	   39.2545 
    1.9455 	   37.8445 	   23.0000 	   56.0000 	   39.2955 
    2.0981 	   37.8655 	   23.0000 	   56.0000 	   39.3375 
    1.9760 	   37.8865 	   23.0000 	   56.0000 	   39.3795 
    2.0981 	   37.9075 	   23.0000 	   56.0000 	   39.4215 
    2.0829 	   37.9285 	   23.0000 	   56.0000 	   39.4635 
    2.0218 	   37.9485 	   23.0000 	   56.0000 	   39.5035 
    2.0371 	   37.9695 	   23.0000 	   56.0000 	   39.5445 
    1.9303 	   37.9900 	   23.0000 	   56.0000 	   39.5865 
    1.8997 	   38.0120 	   23.0000 	   56.0000 	   39.6305 
    2.0371 	   38.0320 	   23.0000 	   56.0000 	   39.6705 
    2.0218 	   38.0545 	   23.0000 	   56.0000 	   39.7155 
    2.0523 	   38.0750 	   23.0000 	   56.0000 	   39.7565 
    1.9760 	   38.0955 	   23.0000 	   56.0000 	   39.7975 
    2.0371 	   38.1160 	   23.0000 	   56.0000 	   39.8385 
    1.8997 	   38.1365 	   23.0000 	   56.0000 	   39.8795 
    2.1592 	   38.1575 	   23.0000 	   56.0000 	   39.9215 
    2.0676 	   38.1785 	   23.0000 	   56.0000 	   39.9635 
    2.0829 	   38.1995 	   23.0000 	   56.0000 	   40.0055 
    1.9913 	   38.2190 	   23.0000 	   56.0000 	   40.0445 
    2.0523 	   38.2405 	   23.0000 	   56.0000 	   40.0875 
    2.0066 	   38.2630 	   23.0000 	   56.0000 	   40.1325 
    2.0676 	   38.2835 	   23.0000 	   56.0000 	   40.1735 
    2.0218 	   38.3040 	   23.0000 	   56.0000 	   40.2145 
    1.9760 	   38.3245 	   23.0000 	   56.0000 	   40.2555 
    1.9608 	   38.3455 	   23.0000 	   56.0000 	   40.2975 
    1.9760 	   38.3655 	   23.0000 	   56.0000 	   40.3375 
    2.0829 	   38.3865 	   23.0000 	   56.0000 	   40.3795 
    1.9303 	   38.4070 	   23.0000 	   56.0000 	   40.4205 
    1.9760 	   38.4275 	   23.0000 	   56.0000 	   40.4615 
    1.9913 	   38.4485 	   23.0000 	   56.0000 	   40.5035 
    2.0981 	   38.4700 	   23.0000 	   56.0000 	   40.5465 
    2.0829 	   38.4910 	   23.0000 	   56.0000 	   40.5885 
    2.0829 	   38.5110 	   23.0000 	   56.0000 	   40.6285 
    2.0371 	   38.5320 	   23.0000 	   56.0000 	   40.6706 
    1.9913 	   38.5525 	   23.0000 	   56.0000 	   40.7116 
    2.1592 	   38.5740 	   23.0000 	   56.0000 	   40.7546 
    2.0981 	   38.5950 	   23.0000 	   56.0000 	   40.7966 
    2.1134 	   38.6155 	   23.0000 	   56.0000 	   40.8376 
    1.9608 	   38.6360 	   23.0000 	   56.0000 	   40.8786 
    2.1286 	   38.6575 	   23.0000 	   56.0000 	   40.9216 
    2.0981 	   38.6785 	   23.0000 	   56.0000 	   40.9636 
    2.0523 	   38.6990 	   23.0000 	   56.0000 	   41.0046 
    2.0523 	   38.7210 	   23.0000 	   56.0000 	   41.0486 
    2.2202 	   38.7415 	   23.0000 	   56.0000 	   41.0896 
    2.1744 	   38.7620 	   23.0000 	   56.0000 	   41.1306 
    2.0676 	   38.7835 	   23.0000 	   56.0000 	   41.1736 
    2.0218 	   38.8045 	   23.0000 	   56.0000 	   41.2156 
    2.1286 	   38.8250 	   23.0000 	   56.0000 	   41.2566 
    2.0829 	   38.8455 	   23.0000 	   56.0000 	   41.2976 
    2.0676 	   38.8665 	   23.0000 	   56.0000 	   41.3396 
    2.1897 	   38.8865 	   23.0000 	   56.0000 	   41.3796 
    1.8692 	   38.9070 	   23.0000 	   56.0000 	   41.4206 
    2.1592 	   38.9275 	   23.0000 	   56.0000 	   41.4616 
    2.0829 	   38.9485 	   23.0000 	   56.0000 	   41.5036 
    2.1897 	   38.9685 	   23.0000 	   56.0000 	   41.5436 
    2.0676 	   38.9890 	   23.0000 	   56.0000 	   41.5846 
    2.0981 	   39.0095 	   23.0000 	   56.0000 	   41.6256 
    2.1439 	   39.0300 	   23.0000 	   56.0000 	   41.6666 
    2.1744 	   39.0525 	   23.0000 	   56.0000 	   41.7116 
    2.1592 	   39.0725 	   23.0000 	   56.0000 	   41.7516 
    1.8387 	   39.0920 	   23.0000 	   56.0000 	   41.7906 
    2.1897 	   39.1140 	   23.0000 	   56.0000 	   41.8346 
    2.2202 	   39.1340 	   23.0000 	   56.0000 	   41.8746 
    2.1592 	   39.1540 	   23.0000 	   56.0000 	   41.9146 
    2.2660 	   39.1740 	   23.0000 	   56.0000 	   41.9546 
    2.0523 	   39.1945 	   23.0000 	   56.0000 	   41.9956 
    2.0371 	   39.2135 	   23.0000 	   56.0000 	   42.0336 
    2.1134 	   39.2335 	   23.0000 	   56.0000 	   42.0736 
    2.0981 	   39.2540 	   23.0000 	   56.0000 	   42.1146 
    2.0981 	   39.2735 	   23.0000 	   56.0000 	   42.1536 
    2.1134 	   39.2920 	   23.0000 	   56.0000 	   42.1906 
    2.1592 	   39.3115 	   23.0000 	   56.0000 	   42.2296 
    2.0829 	   39.3295 	   23.0000 	   56.0000 	   42.2656 
    2.1592 	   39.3480 	   23.0000 	   56.0000 	   42.3026 
    2.1439 	   39.3660 	   23.0000 	   56.0000 	   42.3386 
    2.1134 	   39.3850 	   23.0000 	   56.0000 	   42.3766 
    2.1134 	   39.4030 	   23.0000 	   56.0000 	   42.4127 
    2.1744 	   39.4220 	   23.0000 	   56.0000 	   42.4507 
    2.0829 	   39.4400 	   23.0000 	   56.0000 	   42.4867 
    2.1439 	   39.4580 	   23.0000 	   56.0000 	   42.5227 
    2.0371 	   39.4765 	   23.0000 	   56.0000 	   42.5597 
    2.1134 	   39.4950 	   23.0000 	   56.0000 	   42.5967 
    2.0829 	   39.5135 	   23.0000 	   56.0000 	   42.6337 
    1.8387 	   39.5320 	   23.0000 	   56.0000 	   42.6707 
    1.8997 	   39.5500 	   23.0000 	   56.0000 	   42.7067 
    2.1439 	   39.5695 	   23.0000 	   56.0000 	   42.7457 
    2.0523 	   39.5885 	   23.0000 	   56.0000 	   42.7837 
    2.1134 	   39.6065 	   23.0000 	   56.0000 	   42.8197 
    2.1134 	   39.6270 	   23.0000 	   56.0000 	   42.8607 
    2.1286 	   39.6480 	   23.0000 	   56.0000 	   42.9027 
    2.2202 	   39.6675 	   23.0000 	   56.0000 	   42.9417 
    2.1439 	   39.6860 	   23.0000 	   56.0000 	   42.9787 
    2.1134 	   39.7045 	   23.0000 	   56.0000 	   43.0157 
    2.4033 	   39.7230 	   23.0000 	   56.0000 	   43.0527 
    1.9150 	   39.7415 	   23.0000 	   56.0000 	   43.0897 
    2.1286 	   39.7610 	   23.0000 	   56.0000 	   43.1287 
    2.1134 	   39.7790 	   23.0000 	   56.0000 	   43.1647 
    2.2049 	   39.7975 	   23.0000 	   56.0000 	   43.2017 
    2.1897 	   39.8155 	   23.0000 	   56.0000 	   43.2377 
    2.1897 	   39.8360 	   23.0000 	   56.0000 	   43.2787 
    2.0371 	   39.8565 	   23.0000 	   56.0000 	   43.3197 
    2.1134 	   39.8760 	   23.0000 	   56.0000 	   43.3587 
    2.1592 	   39.8955 	   23.0000 	   56.0000 	   43.3977 
    2.1744 	   39.9160 	   23.0000 	   56.0000 	   43.4387 
    2.2202 	   39.9380 	   23.0000 	   56.0000 	   43.4827 
    2.1744 	   39.9575 	   23.0000 	   56.0000 	   43.5217 
    2.2049 	   39.9790 	   23.0000 	   56.0000 	   43.5647 
    2.1286 	   39.9995 	   23.0000 	   56.0000 	   43.6057 
    2.0981 	   40.0205 	   23.0000 	   56.0000 	   43.6477 
    2.1592 	   40.0415 	   23.0000 	   56.0000 	   43.6897 
    2.2507 	   40.0635 	   23.0000 	   56.0000 	   43.7337 
    2.2507 	   40.0835 	   23.0000 	   56.0000 	   43.7737 
    1.9455 	   40.1045 	   23.0000 	   56.0000 	   43.8157 
    2.1592 	   40.1250 	   23.0000 	   56.0000 	   43.8567 
    2.2965 	   40.1455 	   23.0000 	   56.0000 	   43.8977 
    2.0371 	   40.1635 	   23.0000 	   56.0000 	   43.9337 
    2.2049 	   40.1830 	   23.0000 	   56.0000 	   43.9727 
    2.1744 	   40.2030 	   23.0000 	   56.0000 	   44.0127 
    2.2507 	   40.2235 	   23.0000 	   56.0000 	   44.0537 
    2.2812 	   40.2445 	   23.0000 	   56.0000 	   44.0957 
    2.1744 	   40.2650 	   23.0000 	   56.0000 	   44.1367 
    2.0981 	   40.2850 	   23.0000 	   56.0000 	   44.1768 
