Thayer School of Engineering        Instron 4442 Mechanical Testing System
7/5/2018 11:31:43 PM

  Force (N)	Extension (mm)	Not Used	Not Used	Not Used	     Hour	    Minute	    Second
    0.4654 	    0.5140 	   23.0000 	   31.0000 	   56.6347 
    0.4807 	    0.5285 	   23.0000 	   31.0000 	   56.6637 
    0.3586 	    0.5595 	   23.0000 	   31.0000 	   56.7257 
    0.6943 	    0.5770 	   23.0000 	   31.0000 	   56.7607 
    0.5417 	    0.6060 	   23.0000 	   31.0000 	   56.8187 
    0.4807 	    0.6335 	   23.0000 	   31.0000 	   56.8737 
    0.4959 	    0.6600 	   23.0000 	   31.0000 	   56.9267 
    0.4654 	    0.6765 	   23.0000 	   31.0000 	   56.9597 
    0.5417 	    0.6930 	   23.0000 	   31.0000 	   56.9927 
    0.5264 	    0.7095 	   23.0000 	   31.0000 	   57.0257 
    0.6943 	    0.7255 	   23.0000 	   31.0000 	   57.0577 
    0.4959 	    0.7415 	   23.0000 	   31.0000 	   57.0897 
    0.5570 	    0.7705 	   23.0000 	   31.0000 	   57.1477 
    0.5570 	    0.7990 	   23.0000 	   31.0000 	   57.2047 
    0.4501 	    0.8245 	   23.0000 	   31.0000 	   57.2557 
    0.6332 	    0.8390 	   23.0000 	   31.0000 	   57.2847 
    0.5570 	    0.8665 	   23.0000 	   31.0000 	   57.3397 
    0.5264 	    0.8940 	   23.0000 	   31.0000 	   57.3947 
    0.6485 	    0.9095 	   23.0000 	   31.0000 	   57.4257 
    0.4349 	    0.9390 	   23.0000 	   31.0000 	   57.4847 
    0.4807 	    0.9665 	   23.0000 	   31.0000 	   57.5397 
    0.5417 	    0.9920 	   23.0000 	   31.0000 	   57.5907 
    0.2976 	    1.0175 	   23.0000 	   31.0000 	   57.6417 
    0.4959 	    1.0330 	   23.0000 	   31.0000 	   57.6727 
    0.5722 	    1.0600 	   23.0000 	   31.0000 	   57.7267 
    0.4959 	    1.0875 	   23.0000 	   31.0000 	   57.7817 
    0.5722 	    1.1130 	   23.0000 	   31.0000 	   57.8327 
    0.4959 	    1.1380 	   23.0000 	   31.0000 	   57.8827 
    0.5112 	    1.1655 	   23.0000 	   31.0000 	   57.9377 
    0.5417 	    1.1915 	   23.0000 	   31.0000 	   57.9897 
    0.4959 	    1.2075 	   23.0000 	   31.0000 	   58.0217 
    0.5570 	    1.2235 	   23.0000 	   31.0000 	   58.0537 
    0.5722 	    1.2390 	   23.0000 	   31.0000 	   58.0848 
    0.5570 	    1.2675 	   23.0000 	   31.0000 	   58.1418 
    0.6790 	    1.2830 	   23.0000 	   31.0000 	   58.1728 
    0.5112 	    1.2985 	   23.0000 	   31.0000 	   58.2038 
    0.3128 	    1.3275 	   23.0000 	   31.0000 	   58.2618 
    0.4959 	    1.3530 	   23.0000 	   31.0000 	   58.3128 
    0.6027 	    1.3780 	   23.0000 	   31.0000 	   58.3628 
    0.5264 	    1.4030 	   23.0000 	   31.0000 	   58.4128 
    0.6485 	    1.4270 	   23.0000 	   31.0000 	   58.4608 
    0.4959 	    1.4515 	   23.0000 	   31.0000 	   58.5098 
    0.5417 	    1.4765 	   23.0000 	   31.0000 	   58.5598 
    0.4807 	    1.5015 	   23.0000 	   31.0000 	   58.6098 
    0.4501 	    1.5165 	   23.0000 	   31.0000 	   58.6398 
    0.5264 	    1.5320 	   23.0000 	   31.0000 	   58.6708 
    0.5875 	    1.5610 	   23.0000 	   31.0000 	   58.7288 
    0.5112 	    1.5865 	   23.0000 	   31.0000 	   58.7798 
    0.6027 	    1.6025 	   23.0000 	   31.0000 	   58.8118 
    0.6332 	    1.6205 	   23.0000 	   31.0000 	   58.8478 
    0.6332 	    1.6490 	   23.0000 	   31.0000 	   58.9048 
    0.4807 	    1.6655 	   23.0000 	   31.0000 	   58.9378 
    0.4959 	    1.6825 	   23.0000 	   31.0000 	   58.9718 
    0.3738 	    1.6990 	   23.0000 	   31.0000 	   59.0048 
    0.5112 	    1.7155 	   23.0000 	   31.0000 	   59.0378 
    0.6027 	    1.7435 	   23.0000 	   31.0000 	   59.0938 
    0.5722 	    1.7600 	   23.0000 	   31.0000 	   59.1268 
    0.6180 	    1.7760 	   23.0000 	   31.0000 	   59.1588 
    0.6485 	    1.7925 	   23.0000 	   31.0000 	   59.1918 
    0.6485 	    1.8080 	   23.0000 	   31.0000 	   59.2228 
    0.6180 	    1.8240 	   23.0000 	   31.0000 	   59.2548 
    0.3738 	    1.8395 	   23.0000 	   31.0000 	   59.2858 
    0.6332 	    1.8535 	   23.0000 	   31.0000 	   59.3138 
    0.4959 	    1.8680 	   23.0000 	   31.0000 	   59.3428 
    0.5417 	    1.8840 	   23.0000 	   31.0000 	   59.3748 
    0.5417 	    1.9005 	   23.0000 	   31.0000 	   59.4078 
    0.4501 	    1.9175 	   23.0000 	   31.0000 	   59.4418 
    0.5722 	    1.9340 	   23.0000 	   31.0000 	   59.4748 
    0.5570 	    1.9505 	   23.0000 	   31.0000 	   59.5078 
    0.5112 	    1.9680 	   23.0000 	   31.0000 	   59.5428 
    0.4654 	    1.9845 	   23.0000 	   31.0000 	   59.5758 
    0.4959 	    2.0005 	   23.0000 	   31.0000 	   59.6078 
    0.4501 	    2.0170 	   23.0000 	   31.0000 	   59.6408 
    0.6180 	    2.0330 	   23.0000 	   31.0000 	   59.6728 
    0.4044 	    2.0485 	   23.0000 	   31.0000 	   59.7038 
    0.5417 	    2.0650 	   23.0000 	   31.0000 	   59.7368 
    0.5722 	    2.0820 	   23.0000 	   31.0000 	   59.7708 
    0.6027 	    2.0985 	   23.0000 	   31.0000 	   59.8038 
    0.6180 	    2.1160 	   23.0000 	   31.0000 	   59.8389 
    0.6485 	    2.1315 	   23.0000 	   31.0000 	   59.8699 
    0.5722 	    2.1485 	   23.0000 	   31.0000 	   59.9039 
    0.5112 	    2.1655 	   23.0000 	   31.0000 	   59.9379 
    0.5264 	    2.1820 	   23.0000 	   31.0000 	   59.9709 
    0.6180 	    2.1980 	   23.0000 	   32.0000 	    0.0029 
    0.3891 	    2.2135 	   23.0000 	   32.0000 	    0.0339 
    0.5264 	    2.2275 	   23.0000 	   32.0000 	    0.0619 
    0.5570 	    2.2445 	   23.0000 	   32.0000 	    0.0959 
    0.5264 	    2.2610 	   23.0000 	   32.0000 	    0.1289 
    0.5570 	    2.2775 	   23.0000 	   32.0000 	    0.1619 
    0.5570 	    2.2940 	   23.0000 	   32.0000 	    0.1949 
    0.5264 	    2.3085 	   23.0000 	   32.0000 	    0.2239 
    0.6485 	    2.3245 	   23.0000 	   32.0000 	    0.2559 
    0.6485 	    2.3405 	   23.0000 	   32.0000 	    0.2879 
    0.7095 	    2.3590 	   23.0000 	   32.0000 	    0.3249 
    0.5417 	    2.3765 	   23.0000 	   32.0000 	    0.3599 
    0.5417 	    2.3930 	   23.0000 	   32.0000 	    0.3929 
    0.6027 	    2.4090 	   23.0000 	   32.0000 	    0.4249 
    0.4807 	    2.4240 	   23.0000 	   32.0000 	    0.4549 
    0.4807 	    2.4410 	   23.0000 	   32.0000 	    0.4889 
    0.6638 	    2.4575 	   23.0000 	   32.0000 	    0.5219 
    0.3891 	    2.4755 	   23.0000 	   32.0000 	    0.5579 
    0.5570 	    2.4925 	   23.0000 	   32.0000 	    0.5919 
    0.6027 	    2.5100 	   23.0000 	   32.0000 	    0.6269 
    0.6027 	    2.5255 	   23.0000 	   32.0000 	    0.6579 
    0.5112 	    2.5410 	   23.0000 	   32.0000 	    0.6889 
    0.5417 	    2.5580 	   23.0000 	   32.0000 	    0.7229 
    0.6485 	    2.5735 	   23.0000 	   32.0000 	    0.7539 
    0.4959 	    2.5905 	   23.0000 	   32.0000 	    0.7879 
    0.6180 	    2.6060 	   23.0000 	   32.0000 	    0.8189 
    0.5112 	    2.6220 	   23.0000 	   32.0000 	    0.8509 
    0.5722 	    2.6385 	   23.0000 	   32.0000 	    0.8839 
    0.6332 	    2.6525 	   23.0000 	   32.0000 	    0.9119 
    0.5722 	    2.6685 	   23.0000 	   32.0000 	    0.9439 
    0.5417 	    2.6865 	   23.0000 	   32.0000 	    0.9799 
    0.5570 	    2.7020 	   23.0000 	   32.0000 	    1.0109 
    0.6332 	    2.7180 	   23.0000 	   32.0000 	    1.0429 
    0.5570 	    2.7335 	   23.0000 	   32.0000 	    1.0739 
    0.4196 	    2.7490 	   23.0000 	   32.0000 	    1.1049 
    0.6485 	    2.7645 	   23.0000 	   32.0000 	    1.1359 
    0.6485 	    2.7785 	   23.0000 	   32.0000 	    1.1639 
    0.5875 	    2.7940 	   23.0000 	   32.0000 	    1.1949 
    0.6485 	    2.8090 	   23.0000 	   32.0000 	    1.2249 
    0.5112 	    2.8240 	   23.0000 	   32.0000 	    1.2549 
    0.5417 	    2.8400 	   23.0000 	   32.0000 	    1.2869 
    0.6180 	    2.8560 	   23.0000 	   32.0000 	    1.3189 
    0.5875 	    2.8715 	   23.0000 	   32.0000 	    1.3499 
    0.6638 	    2.8875 	   23.0000 	   32.0000 	    1.3819 
    0.6638 	    2.9030 	   23.0000 	   32.0000 	    1.4129 
    0.6027 	    2.9185 	   23.0000 	   32.0000 	    1.4439 
    0.6180 	    2.9350 	   23.0000 	   32.0000 	    1.4769 
    0.5264 	    2.9500 	   23.0000 	   32.0000 	    1.5069 
    0.6485 	    2.9650 	   23.0000 	   32.0000 	    1.5369 
    0.6638 	    2.9815 	   23.0000 	   32.0000 	    1.5700 
    0.6027 	    2.9960 	   23.0000 	   32.0000 	    1.5990 
    0.7248 	    3.0110 	   23.0000 	   32.0000 	    1.6290 
    0.6027 	    3.0265 	   23.0000 	   32.0000 	    1.6600 
    0.5875 	    3.0430 	   23.0000 	   32.0000 	    1.6930 
    0.5875 	    3.0580 	   23.0000 	   32.0000 	    1.7230 
    0.6943 	    3.0735 	   23.0000 	   32.0000 	    1.7540 
    0.5112 	    3.0905 	   23.0000 	   32.0000 	    1.7880 
    0.6180 	    3.1055 	   23.0000 	   32.0000 	    1.8180 
    0.4654 	    3.1195 	   23.0000 	   32.0000 	    1.8460 
    0.6027 	    3.1365 	   23.0000 	   32.0000 	    1.8800 
    0.5722 	    3.1520 	   23.0000 	   32.0000 	    1.9110 
    0.5875 	    3.1670 	   23.0000 	   32.0000 	    1.9410 
    0.5722 	    3.1840 	   23.0000 	   32.0000 	    1.9750 
    0.5722 	    3.1990 	   23.0000 	   32.0000 	    2.0050 
    0.5112 	    3.2145 	   23.0000 	   32.0000 	    2.0360 
    0.4349 	    3.2305 	   23.0000 	   32.0000 	    2.0680 
    0.3738 	    3.2470 	   23.0000 	   32.0000 	    2.1010 
    0.6027 	    3.2615 	   23.0000 	   32.0000 	    2.1300 
    0.5875 	    3.2765 	   23.0000 	   32.0000 	    2.1600 
    0.7553 	    3.2940 	   23.0000 	   32.0000 	    2.1950 
    0.7095 	    3.3090 	   23.0000 	   32.0000 	    2.2250 
    0.6790 	    3.3250 	   23.0000 	   32.0000 	    2.2570 
    0.5570 	    3.3425 	   23.0000 	   32.0000 	    2.2920 
    0.6332 	    3.3580 	   23.0000 	   32.0000 	    2.3230 
    0.6332 	    3.3730 	   23.0000 	   32.0000 	    2.3530 
    0.7095 	    3.3895 	   23.0000 	   32.0000 	    2.3860 
    0.5112 	    3.4045 	   23.0000 	   32.0000 	    2.4160 
    0.6027 	    3.4185 	   23.0000 	   32.0000 	    2.4440 
    0.7706 	    3.4355 	   23.0000 	   32.0000 	    2.4780 
    0.7401 	    3.4520 	   23.0000 	   32.0000 	    2.5110 
    0.5112 	    3.4660 	   23.0000 	   32.0000 	    2.5390 
    0.4807 	    3.4830 	   23.0000 	   32.0000 	    2.5730 
    0.7401 	    3.4980 	   23.0000 	   32.0000 	    2.6030 
    0.5875 	    3.5135 	   23.0000 	   32.0000 	    2.6340 
    0.4501 	    3.5280 	   23.0000 	   32.0000 	    2.6630 
    0.5875 	    3.5450 	   23.0000 	   32.0000 	    2.6970 
    0.7248 	    3.5610 	   23.0000 	   32.0000 	    2.7290 
    0.5264 	    3.5765 	   23.0000 	   32.0000 	    2.7600 
    0.4349 	    3.5925 	   23.0000 	   32.0000 	    2.7920 
    0.5875 	    3.6075 	   23.0000 	   32.0000 	    2.8220 
    0.6180 	    3.6235 	   23.0000 	   32.0000 	    2.8540 
    0.4349 	    3.6405 	   23.0000 	   32.0000 	    2.8880 
    0.7553 	    3.6565 	   23.0000 	   32.0000 	    2.9200 
    0.6943 	    3.6715 	   23.0000 	   32.0000 	    2.9500 
    0.6332 	    3.6885 	   23.0000 	   32.0000 	    2.9840 
    0.4501 	    3.7030 	   23.0000 	   32.0000 	    3.0130 
    0.6027 	    3.7185 	   23.0000 	   32.0000 	    3.0440 
    0.6332 	    3.7350 	   23.0000 	   32.0000 	    3.0770 
    0.6943 	    3.7505 	   23.0000 	   32.0000 	    3.1080 
    0.8164 	    3.7655 	   23.0000 	   32.0000 	    3.1380 
    0.6332 	    3.7835 	   23.0000 	   32.0000 	    3.1740 
    0.2365 	    3.7990 	   23.0000 	   32.0000 	    3.2050 
    0.5570 	    3.8145 	   23.0000 	   32.0000 	    3.2360 
    0.5417 	    3.8310 	   23.0000 	   32.0000 	    3.2690 
    0.6943 	    3.8480 	   23.0000 	   32.0000 	    3.3030 
    0.7095 	    3.8640 	   23.0000 	   32.0000 	    3.3351 
    0.6027 	    3.8795 	   23.0000 	   32.0000 	    3.3661 
    0.5875 	    3.8950 	   23.0000 	   32.0000 	    3.3971 
    0.6790 	    3.9110 	   23.0000 	   32.0000 	    3.4291 
    0.6638 	    3.9265 	   23.0000 	   32.0000 	    3.4601 
    0.5417 	    3.9435 	   23.0000 	   32.0000 	    3.4941 
    0.2976 	    3.9580 	   23.0000 	   32.0000 	    3.5231 
    0.5875 	    3.9735 	   23.0000 	   32.0000 	    3.5541 
    0.5112 	    3.9890 	   23.0000 	   32.0000 	    3.5851 
    0.4807 	    4.0030 	   23.0000 	   32.0000 	    3.6131 
    0.5875 	    4.0255 	   23.0000 	   32.0000 	    3.6581 
    0.5570 	    4.0410 	   23.0000 	   32.0000 	    3.6891 
    0.6485 	    4.0565 	   23.0000 	   32.0000 	    3.7201 
    0.4654 	    4.0720 	   23.0000 	   32.0000 	    3.7511 
    0.7858 	    4.0870 	   23.0000 	   32.0000 	    3.7811 
    0.6027 	    4.1015 	   23.0000 	   32.0000 	    3.8101 
    0.5570 	    4.1170 	   23.0000 	   32.0000 	    3.8411 
    0.6638 	    4.1330 	   23.0000 	   32.0000 	    3.8731 
    0.5875 	    4.1485 	   23.0000 	   32.0000 	    3.9041 
    0.5112 	    4.1635 	   23.0000 	   32.0000 	    3.9341 
    0.6180 	    4.1785 	   23.0000 	   32.0000 	    3.9641 
    0.6790 	    4.1935 	   23.0000 	   32.0000 	    3.9941 
    0.6943 	    4.2100 	   23.0000 	   32.0000 	    4.0271 
    0.5722 	    4.2240 	   23.0000 	   32.0000 	    4.0551 
    0.6638 	    4.2415 	   23.0000 	   32.0000 	    4.0901 
    0.5570 	    4.2570 	   23.0000 	   32.0000 	    4.1211 
    0.6180 	    4.2730 	   23.0000 	   32.0000 	    4.1531 
    0.5722 	    4.2880 	   23.0000 	   32.0000 	    4.1831 
    0.6180 	    4.3045 	   23.0000 	   32.0000 	    4.2161 
    0.6943 	    4.3200 	   23.0000 	   32.0000 	    4.2471 
    0.2670 	    4.3370 	   23.0000 	   32.0000 	    4.2811 
    0.6638 	    4.3520 	   23.0000 	   32.0000 	    4.3111 
    0.6790 	    4.3660 	   23.0000 	   32.0000 	    4.3391 
    0.6485 	    4.3805 	   23.0000 	   32.0000 	    4.3681 
    0.5264 	    4.3960 	   23.0000 	   32.0000 	    4.3991 
    0.4196 	    4.4110 	   23.0000 	   32.0000 	    4.4291 
    0.6943 	    4.4260 	   23.0000 	   32.0000 	    4.4591 
    0.6790 	    4.4435 	   23.0000 	   32.0000 	    4.4941 
    0.6027 	    4.4595 	   23.0000 	   32.0000 	    4.5261 
    0.6790 	    4.4745 	   23.0000 	   32.0000 	    4.5561 
    0.5722 	    4.4910 	   23.0000 	   32.0000 	    4.5891 
    0.5875 	    4.5070 	   23.0000 	   32.0000 	    4.6211 
    0.5722 	    4.5230 	   23.0000 	   32.0000 	    4.6531 
    0.6180 	    4.5405 	   23.0000 	   32.0000 	    4.6881 
    0.5722 	    4.5560 	   23.0000 	   32.0000 	    4.7191 
    0.7706 	    4.5710 	   23.0000 	   32.0000 	    4.7491 
    0.7553 	    4.5865 	   23.0000 	   32.0000 	    4.7801 
    0.5570 	    4.6025 	   23.0000 	   32.0000 	    4.8121 
    0.8469 	    4.6180 	   23.0000 	   32.0000 	    4.8431 
    0.6638 	    4.6360 	   23.0000 	   32.0000 	    4.8791 
    0.5722 	    4.6515 	   23.0000 	   32.0000 	    4.9101 
    0.6790 	    4.6670 	   23.0000 	   32.0000 	    4.9411 
    0.6027 	    4.6815 	   23.0000 	   32.0000 	    4.9701 
    0.6332 	    4.6980 	   23.0000 	   32.0000 	    5.0031 
    0.6485 	    4.7140 	   23.0000 	   32.0000 	    5.0351 
    0.5264 	    4.7295 	   23.0000 	   32.0000 	    5.0662 
    0.7401 	    4.7465 	   23.0000 	   32.0000 	    5.1002 
    0.5875 	    4.7620 	   23.0000 	   32.0000 	    5.1312 
    0.6027 	    4.7775 	   23.0000 	   32.0000 	    5.1622 
    0.6180 	    4.7935 	   23.0000 	   32.0000 	    5.1942 
    0.6485 	    4.8095 	   23.0000 	   32.0000 	    5.2262 
    0.5112 	    4.8250 	   23.0000 	   32.0000 	    5.2572 
    0.4959 	    4.8420 	   23.0000 	   32.0000 	    5.2912 
    0.5264 	    4.8570 	   23.0000 	   32.0000 	    5.3212 
    0.5722 	    4.8720 	   23.0000 	   32.0000 	    5.3512 
    0.7095 	    4.8870 	   23.0000 	   32.0000 	    5.3812 
    0.5722 	    4.9035 	   23.0000 	   32.0000 	    5.4142 
    0.7706 	    4.9185 	   23.0000 	   32.0000 	    5.4442 
    0.6027 	    4.9365 	   23.0000 	   32.0000 	    5.4802 
    0.7095 	    4.9520 	   23.0000 	   32.0000 	    5.5112 
    0.7248 	    4.9680 	   23.0000 	   32.0000 	    5.5432 
    0.7401 	    4.9835 	   23.0000 	   32.0000 	    5.5742 
    0.6790 	    4.9995 	   23.0000 	   32.0000 	    5.6062 
    0.5875 	    5.0155 	   23.0000 	   32.0000 	    5.6382 
    0.5570 	    5.0305 	   23.0000 	   32.0000 	    5.6682 
    0.6790 	    5.0480 	   23.0000 	   32.0000 	    5.7032 
    0.6790 	    5.0640 	   23.0000 	   32.0000 	    5.7352 
    0.6943 	    5.0800 	   23.0000 	   32.0000 	    5.7672 
    0.7553 	    5.0960 	   23.0000 	   32.0000 	    5.7992 
    0.7095 	    5.1115 	   23.0000 	   32.0000 	    5.8302 
    0.7401 	    5.1275 	   23.0000 	   32.0000 	    5.8622 
    0.6180 	    5.1440 	   23.0000 	   32.0000 	    5.8952 
    0.6180 	    5.1595 	   23.0000 	   32.0000 	    5.9262 
    0.7401 	    5.1755 	   23.0000 	   32.0000 	    5.9582 
    0.7706 	    5.1910 	   23.0000 	   32.0000 	    5.9892 
    0.6027 	    5.2065 	   23.0000 	   32.0000 	    6.0202 
    0.6180 	    5.2215 	   23.0000 	   32.0000 	    6.0502 
    0.7095 	    5.2390 	   23.0000 	   32.0000 	    6.0852 
    0.8164 	    5.2550 	   23.0000 	   32.0000 	    6.1172 
    0.4196 	    5.2700 	   23.0000 	   32.0000 	    6.1472 
    0.5875 	    5.2845 	   23.0000 	   32.0000 	    6.1762 
    0.6180 	    5.3000 	   23.0000 	   32.0000 	    6.2072 
    0.7248 	    5.3160 	   23.0000 	   32.0000 	    6.2392 
    0.6180 	    5.3330 	   23.0000 	   32.0000 	    6.2732 
    0.6790 	    5.3490 	   23.0000 	   32.0000 	    6.3052 
    0.3586 	    5.3650 	   23.0000 	   32.0000 	    6.3372 
    0.5417 	    5.3820 	   23.0000 	   32.0000 	    6.3712 
    0.6638 	    5.3980 	   23.0000 	   32.0000 	    6.4032 
    0.7095 	    5.4145 	   23.0000 	   32.0000 	    6.4362 
    0.6332 	    5.4305 	   23.0000 	   32.0000 	    6.4682 
    0.6027 	    5.4480 	   23.0000 	   32.0000 	    6.5032 
    0.5875 	    5.4640 	   23.0000 	   32.0000 	    6.5352 
    0.5722 	    5.4805 	   23.0000 	   32.0000 	    6.5682 
    0.5570 	    5.4955 	   23.0000 	   32.0000 	    6.5982 
    0.8011 	    5.5120 	   23.0000 	   32.0000 	    6.6302 
    0.7706 	    5.5275 	   23.0000 	   32.0000 	    6.6612 
    0.5722 	    5.5445 	   23.0000 	   32.0000 	    6.6952 
    0.5875 	    5.5605 	   23.0000 	   32.0000 	    6.7272 
    0.7248 	    5.5755 	   23.0000 	   32.0000 	    6.7572 
    0.4349 	    5.5915 	   23.0000 	   32.0000 	    6.7892 
    0.7401 	    5.6070 	   23.0000 	   32.0000 	    6.8203 
    0.4654 	    5.6230 	   23.0000 	   32.0000 	    6.8523 
    0.6332 	    5.6410 	   23.0000 	   32.0000 	    6.8883 
    0.5264 	    5.6570 	   23.0000 	   32.0000 	    6.9203 
    0.7553 	    5.6735 	   23.0000 	   32.0000 	    6.9533 
    0.6180 	    5.6910 	   23.0000 	   32.0000 	    6.9883 
    0.7401 	    5.7070 	   23.0000 	   32.0000 	    7.0203 
    0.5264 	    5.7225 	   23.0000 	   32.0000 	    7.0513 
    0.6027 	    5.7400 	   23.0000 	   32.0000 	    7.0863 
    0.5417 	    5.7560 	   23.0000 	   32.0000 	    7.1183 
    0.6180 	    5.7720 	   23.0000 	   32.0000 	    7.1503 
    0.6638 	    5.7870 	   23.0000 	   32.0000 	    7.1803 
    0.6943 	    5.8030 	   23.0000 	   32.0000 	    7.2123 
    0.7095 	    5.8190 	   23.0000 	   32.0000 	    7.2443 
    0.5570 	    5.8365 	   23.0000 	   32.0000 	    7.2793 
    0.6332 	    5.8520 	   23.0000 	   32.0000 	    7.3103 
    0.5722 	    5.8680 	   23.0000 	   32.0000 	    7.3423 
    0.6027 	    5.8840 	   23.0000 	   32.0000 	    7.3743 
    0.4807 	    5.9010 	   23.0000 	   32.0000 	    7.4083 
    0.6180 	    5.9170 	   23.0000 	   32.0000 	    7.4403 
    0.4654 	    5.9345 	   23.0000 	   32.0000 	    7.4753 
    0.6943 	    5.9510 	   23.0000 	   32.0000 	    7.5083 
    0.6332 	    5.9665 	   23.0000 	   32.0000 	    7.5393 
    0.6485 	    5.9825 	   23.0000 	   32.0000 	    7.5713 
    0.6332 	    5.9985 	   23.0000 	   32.0000 	    7.6033 
    0.7401 	    6.0155 	   23.0000 	   32.0000 	    7.6373 
    0.6943 	    6.0295 	   23.0000 	   32.0000 	    7.6653 
    0.6485 	    6.0470 	   23.0000 	   32.0000 	    7.7003 
    0.6332 	    6.0620 	   23.0000 	   32.0000 	    7.7303 
    0.6485 	    6.0775 	   23.0000 	   32.0000 	    7.7613 
    0.6332 	    6.0925 	   23.0000 	   32.0000 	    7.7913 
    0.8164 	    6.1080 	   23.0000 	   32.0000 	    7.8223 
    0.8164 	    6.1240 	   23.0000 	   32.0000 	    7.8543 
    0.7095 	    6.1420 	   23.0000 	   32.0000 	    7.8903 
    0.6027 	    6.1570 	   23.0000 	   32.0000 	    7.9203 
    0.6180 	    6.1740 	   23.0000 	   32.0000 	    7.9543 
    0.7706 	    6.1910 	   23.0000 	   32.0000 	    7.9883 
    0.6180 	    6.2075 	   23.0000 	   32.0000 	    8.0213 
    0.8621 	    6.2235 	   23.0000 	   32.0000 	    8.0533 
    0.7095 	    6.2410 	   23.0000 	   32.0000 	    8.0883 
    0.5722 	    6.2575 	   23.0000 	   32.0000 	    8.1213 
    0.6790 	    6.2740 	   23.0000 	   32.0000 	    8.1543 
    0.6638 	    6.2900 	   23.0000 	   32.0000 	    8.1863 
    0.6027 	    6.3060 	   23.0000 	   32.0000 	    8.2183 
    0.6332 	    6.3225 	   23.0000 	   32.0000 	    8.2513 
    0.6180 	    6.3390 	   23.0000 	   32.0000 	    8.2843 
    0.6943 	    6.3545 	   23.0000 	   32.0000 	    8.3153 
    0.6332 	    6.3710 	   23.0000 	   32.0000 	    8.3483 
    0.5875 	    6.3875 	   23.0000 	   32.0000 	    8.3813 
    0.7248 	    6.4030 	   23.0000 	   32.0000 	    8.4123 
    0.7248 	    6.4180 	   23.0000 	   32.0000 	    8.4423 
    0.7706 	    6.4345 	   23.0000 	   32.0000 	    8.4753 
    0.7858 	    6.4505 	   23.0000 	   32.0000 	    8.5073 
    0.6027 	    6.4660 	   23.0000 	   32.0000 	    8.5383 
    0.6638 	    6.4825 	   23.0000 	   32.0000 	    8.5714 
    0.6332 	    6.4985 	   23.0000 	   32.0000 	    8.6034 
    0.4807 	    6.5155 	   23.0000 	   32.0000 	    8.6374 
    0.7401 	    6.5325 	   23.0000 	   32.0000 	    8.6714 
    0.7401 	    6.5485 	   23.0000 	   32.0000 	    8.7034 
    0.6790 	    6.5655 	   23.0000 	   32.0000 	    8.7374 
    0.5417 	    6.5825 	   23.0000 	   32.0000 	    8.7714 
    0.6332 	    6.5985 	   23.0000 	   32.0000 	    8.8034 
    0.6790 	    6.6155 	   23.0000 	   32.0000 	    8.8374 
    0.8011 	    6.6310 	   23.0000 	   32.0000 	    8.8684 
    0.6332 	    6.6485 	   23.0000 	   32.0000 	    8.9034 
    0.7858 	    6.6655 	   23.0000 	   32.0000 	    8.9374 
    0.6485 	    6.6820 	   23.0000 	   32.0000 	    8.9704 
    0.6638 	    6.6990 	   23.0000 	   32.0000 	    9.0044 
    0.6943 	    6.7150 	   23.0000 	   32.0000 	    9.0364 
    0.5722 	    6.7320 	   23.0000 	   32.0000 	    9.0704 
    0.7401 	    6.7490 	   23.0000 	   32.0000 	    9.1044 
    0.6332 	    6.7660 	   23.0000 	   32.0000 	    9.1384 
    0.6943 	    6.7835 	   23.0000 	   32.0000 	    9.1734 
    0.6180 	    6.7985 	   23.0000 	   32.0000 	    9.2034 
    0.5264 	    6.8155 	   23.0000 	   32.0000 	    9.2374 
    0.3738 	    6.8310 	   23.0000 	   32.0000 	    9.2684 
    0.7248 	    6.8500 	   23.0000 	   32.0000 	    9.3064 
    0.7553 	    6.8650 	   23.0000 	   32.0000 	    9.3364 
    0.6638 	    6.8815 	   23.0000 	   32.0000 	    9.3694 
    0.7401 	    6.8980 	   23.0000 	   32.0000 	    9.4024 
    0.8011 	    6.9150 	   23.0000 	   32.0000 	    9.4364 
    0.7095 	    6.9325 	   23.0000 	   32.0000 	    9.4714 
    0.6790 	    6.9485 	   23.0000 	   32.0000 	    9.5034 
    0.7706 	    6.9650 	   23.0000 	   32.0000 	    9.5364 
    0.7706 	    6.9820 	   23.0000 	   32.0000 	    9.5704 
    0.8011 	    6.9980 	   23.0000 	   32.0000 	    9.6024 
    0.6180 	    7.0150 	   23.0000 	   32.0000 	    9.6364 
    0.7553 	    7.0315 	   23.0000 	   32.0000 	    9.6694 
    0.6790 	    7.0495 	   23.0000 	   32.0000 	    9.7054 
    0.8774 	    7.0660 	   23.0000 	   32.0000 	    9.7384 
    0.6790 	    7.0820 	   23.0000 	   32.0000 	    9.7704 
    0.6943 	    7.0980 	   23.0000 	   32.0000 	    9.8024 
    0.7706 	    7.1150 	   23.0000 	   32.0000 	    9.8364 
    0.6485 	    7.1320 	   23.0000 	   32.0000 	    9.8704 
    0.7248 	    7.1475 	   23.0000 	   32.0000 	    9.9014 
    0.5875 	    7.1640 	   23.0000 	   32.0000 	    9.9344 
    0.6943 	    7.1795 	   23.0000 	   32.0000 	    9.9654 
    0.7095 	    7.1965 	   23.0000 	   32.0000 	    9.9994 
    0.6485 	    7.2130 	   23.0000 	   32.0000 	   10.0324 
    0.7095 	    7.2295 	   23.0000 	   32.0000 	   10.0654 
    0.5875 	    7.2470 	   23.0000 	   32.0000 	   10.1004 
    0.5264 	    7.2635 	   23.0000 	   32.0000 	   10.1324 
    0.8011 	    7.2790 	   23.0000 	   32.0000 	   10.1644 
    0.7706 	    7.2950 	   23.0000 	   32.0000 	   10.1964 
    0.6943 	    7.3110 	   23.0000 	   32.0000 	   10.2284 
    0.7706 	    7.3270 	   23.0000 	   32.0000 	   10.2604 
    0.7095 	    7.3440 	   23.0000 	   32.0000 	   10.2944 
    0.6332 	    7.3605 	   23.0000 	   32.0000 	   10.3275 
    0.7858 	    7.3765 	   23.0000 	   32.0000 	   10.3595 
    0.8621 	    7.3925 	   23.0000 	   32.0000 	   10.3915 
    0.6790 	    7.4095 	   23.0000 	   32.0000 	   10.4255 
    0.6332 	    7.4250 	   23.0000 	   32.0000 	   10.4565 
    0.6790 	    7.4430 	   23.0000 	   32.0000 	   10.4925 
    0.7858 	    7.4585 	   23.0000 	   32.0000 	   10.5235 
    0.7401 	    7.4755 	   23.0000 	   32.0000 	   10.5575 
    0.7401 	    7.4915 	   23.0000 	   32.0000 	   10.5895 
    0.7706 	    7.5075 	   23.0000 	   32.0000 	   10.6215 
    0.8164 	    7.5245 	   23.0000 	   32.0000 	   10.6555 
    0.7248 	    7.5400 	   23.0000 	   32.0000 	   10.6865 
    0.6485 	    7.5565 	   23.0000 	   32.0000 	   10.7195 
    0.6790 	    7.5735 	   23.0000 	   32.0000 	   10.7535 
    0.6790 	    7.5895 	   23.0000 	   32.0000 	   10.7855 
    0.8774 	    7.6070 	   23.0000 	   32.0000 	   10.8205 
    0.8164 	    7.6245 	   23.0000 	   32.0000 	   10.8555 
    0.7858 	    7.6420 	   23.0000 	   32.0000 	   10.8905 
    0.4501 	    7.6590 	   23.0000 	   32.0000 	   10.9245 
    0.7248 	    7.6750 	   23.0000 	   32.0000 	   10.9565 
    0.6485 	    7.6920 	   23.0000 	   32.0000 	   10.9905 
    0.8011 	    7.7075 	   23.0000 	   32.0000 	   11.0215 
    0.6943 	    7.7250 	   23.0000 	   32.0000 	   11.0565 
    0.7095 	    7.7415 	   23.0000 	   32.0000 	   11.0895 
    0.8011 	    7.7565 	   23.0000 	   32.0000 	   11.1195 
    0.6638 	    7.7740 	   23.0000 	   32.0000 	   11.1545 
    0.8011 	    7.7895 	   23.0000 	   32.0000 	   11.1855 
    0.6485 	    7.8070 	   23.0000 	   32.0000 	   11.2205 
    0.4654 	    7.8240 	   23.0000 	   32.0000 	   11.2545 
    0.6790 	    7.8415 	   23.0000 	   32.0000 	   11.2895 
    0.8774 	    7.8575 	   23.0000 	   32.0000 	   11.3215 
    0.5722 	    7.8740 	   23.0000 	   32.0000 	   11.3545 
    0.6943 	    7.8915 	   23.0000 	   32.0000 	   11.3895 
    0.7553 	    7.9070 	   23.0000 	   32.0000 	   11.4205 
    0.9232 	    7.9245 	   23.0000 	   32.0000 	   11.4555 
    0.8164 	    7.9410 	   23.0000 	   32.0000 	   11.4885 
    0.6638 	    7.9580 	   23.0000 	   32.0000 	   11.5225 
    0.6790 	    7.9740 	   23.0000 	   32.0000 	   11.5545 
    0.7706 	    7.9915 	   23.0000 	   32.0000 	   11.5895 
    0.7553 	    8.0075 	   23.0000 	   32.0000 	   11.6215 
    0.5875 	    8.0260 	   23.0000 	   32.0000 	   11.6585 
    0.7248 	    8.0450 	   23.0000 	   32.0000 	   11.6965 
    0.6638 	    8.0610 	   23.0000 	   32.0000 	   11.7285 
    0.7401 	    8.0780 	   23.0000 	   32.0000 	   11.7625 
    0.8316 	    8.0940 	   23.0000 	   32.0000 	   11.7945 
    0.6943 	    8.1105 	   23.0000 	   32.0000 	   11.8275 
    0.4654 	    8.1255 	   23.0000 	   32.0000 	   11.8575 
    0.7858 	    8.1420 	   23.0000 	   32.0000 	   11.8905 
    0.8164 	    8.1585 	   23.0000 	   32.0000 	   11.9225 
    0.6943 	    8.1745 	   23.0000 	   32.0000 	   11.9555 
    0.6790 	    8.1900 	   23.0000 	   32.0000 	   11.9865 
    0.6790 	    8.2075 	   23.0000 	   32.0000 	   12.0215 
    0.8164 	    8.2240 	   23.0000 	   32.0000 	   12.0546 
    0.5722 	    8.2425 	   23.0000 	   32.0000 	   12.0916 
    0.8621 	    8.2585 	   23.0000 	   32.0000 	   12.1236 
    0.7858 	    8.2755 	   23.0000 	   32.0000 	   12.1576 
    0.5417 	    8.2910 	   23.0000 	   32.0000 	   12.1886 
    0.5417 	    8.3085 	   23.0000 	   32.0000 	   12.2236 
    0.5722 	    8.3250 	   23.0000 	   32.0000 	   12.2566 
    0.6790 	    8.3415 	   23.0000 	   32.0000 	   12.2896 
    0.7095 	    8.3565 	   23.0000 	   32.0000 	   12.3196 
    0.7401 	    8.3740 	   23.0000 	   32.0000 	   12.3546 
    0.9079 	    8.3925 	   23.0000 	   32.0000 	   12.3916 
    0.6943 	    8.4085 	   23.0000 	   32.0000 	   12.4236 
    0.8621 	    8.4250 	   23.0000 	   32.0000 	   12.4566 
    0.9232 	    8.4425 	   23.0000 	   32.0000 	   12.4916 
    0.7553 	    8.4590 	   23.0000 	   32.0000 	   12.5246 
    0.6485 	    8.4750 	   23.0000 	   32.0000 	   12.5566 
    0.7401 	    8.4910 	   23.0000 	   32.0000 	   12.5886 
    0.7858 	    8.5075 	   23.0000 	   32.0000 	   12.6216 
    0.7248 	    8.5250 	   23.0000 	   32.0000 	   12.6566 
    0.9232 	    8.5405 	   23.0000 	   32.0000 	   12.6876 
    0.7858 	    8.5575 	   23.0000 	   32.0000 	   12.7216 
    0.7095 	    8.5750 	   23.0000 	   32.0000 	   12.7566 
    0.8621 	    8.5920 	   23.0000 	   32.0000 	   12.7906 
    0.8011 	    8.6085 	   23.0000 	   32.0000 	   12.8236 
    0.7401 	    8.6245 	   23.0000 	   32.0000 	   12.8556 
    0.7095 	    8.6425 	   23.0000 	   32.0000 	   12.8916 
    0.8316 	    8.6590 	   23.0000 	   32.0000 	   12.9246 
    0.6485 	    8.6755 	   23.0000 	   32.0000 	   12.9576 
    0.7858 	    8.6920 	   23.0000 	   32.0000 	   12.9906 
    0.7248 	    8.7085 	   23.0000 	   32.0000 	   13.0236 
    0.9537 	    8.7240 	   23.0000 	   32.0000 	   13.0546 
    0.8316 	    8.7410 	   23.0000 	   32.0000 	   13.0886 
    0.7553 	    8.7570 	   23.0000 	   32.0000 	   13.1206 
    0.8164 	    8.7750 	   23.0000 	   32.0000 	   13.1566 
    0.6943 	    8.7905 	   23.0000 	   32.0000 	   13.1876 
    0.7858 	    8.8085 	   23.0000 	   32.0000 	   13.2236 
    0.7553 	    8.8250 	   23.0000 	   32.0000 	   13.2566 
    0.7706 	    8.8430 	   23.0000 	   32.0000 	   13.2926 
    0.8774 	    8.8590 	   23.0000 	   32.0000 	   13.3246 
    0.7401 	    8.8755 	   23.0000 	   32.0000 	   13.3576 
    0.8316 	    8.8920 	   23.0000 	   32.0000 	   13.3906 
    0.7553 	    8.9080 	   23.0000 	   32.0000 	   13.4226 
    0.6485 	    8.9250 	   23.0000 	   32.0000 	   13.4566 
    0.6485 	    8.9415 	   23.0000 	   32.0000 	   13.4896 
    0.6180 	    8.9580 	   23.0000 	   32.0000 	   13.5226 
    0.7095 	    8.9740 	   23.0000 	   32.0000 	   13.5546 
    0.7858 	    8.9920 	   23.0000 	   32.0000 	   13.5906 
    0.6943 	    9.0090 	   23.0000 	   32.0000 	   13.6246 
    0.7706 	    9.0260 	   23.0000 	   32.0000 	   13.6586 
    0.8316 	    9.0440 	   23.0000 	   32.0000 	   13.6946 
    0.7248 	    9.0595 	   23.0000 	   32.0000 	   13.7256 
    0.8011 	    9.0765 	   23.0000 	   32.0000 	   13.7596 
    0.8164 	    9.0935 	   23.0000 	   32.0000 	   13.7936 
    0.8011 	    9.1105 	   23.0000 	   32.0000 	   13.8277 
    0.7706 	    9.1265 	   23.0000 	   32.0000 	   13.8597 
    0.6180 	    9.1420 	   23.0000 	   32.0000 	   13.8907 
    0.8316 	    9.1580 	   23.0000 	   32.0000 	   13.9227 
    0.7401 	    9.1735 	   23.0000 	   32.0000 	   13.9537 
    0.7858 	    9.1900 	   23.0000 	   32.0000 	   13.9867 
    0.7706 	    9.2080 	   23.0000 	   32.0000 	   14.0227 
    0.7706 	    9.2250 	   23.0000 	   32.0000 	   14.0567 
    0.7095 	    9.2425 	   23.0000 	   32.0000 	   14.0917 
    0.7706 	    9.2590 	   23.0000 	   32.0000 	   14.1247 
    0.8469 	    9.2755 	   23.0000 	   32.0000 	   14.1577 
    0.8164 	    9.2905 	   23.0000 	   32.0000 	   14.1877 
    0.6332 	    9.3080 	   23.0000 	   32.0000 	   14.2227 
    0.6332 	    9.3245 	   23.0000 	   32.0000 	   14.2557 
    0.8011 	    9.3425 	   23.0000 	   32.0000 	   14.2917 
    0.7401 	    9.3590 	   23.0000 	   32.0000 	   14.3247 
    0.7401 	    9.3745 	   23.0000 	   32.0000 	   14.3557 
    0.8164 	    9.3915 	   23.0000 	   32.0000 	   14.3897 
    0.7858 	    9.4090 	   23.0000 	   32.0000 	   14.4247 
    0.8927 	    9.4255 	   23.0000 	   32.0000 	   14.4577 
    0.8164 	    9.4440 	   23.0000 	   32.0000 	   14.4947 
    0.6485 	    9.4605 	   23.0000 	   32.0000 	   14.5277 
    0.7858 	    9.4770 	   23.0000 	   32.0000 	   14.5607 
    0.6790 	    9.4940 	   23.0000 	   32.0000 	   14.5947 
    0.6790 	    9.5105 	   23.0000 	   32.0000 	   14.6277 
    0.6027 	    9.5275 	   23.0000 	   32.0000 	   14.6617 
    0.8011 	    9.5435 	   23.0000 	   32.0000 	   14.6937 
    0.7553 	    9.5600 	   23.0000 	   32.0000 	   14.7267 
    0.6638 	    9.5760 	   23.0000 	   32.0000 	   14.7587 
    0.8469 	    9.5925 	   23.0000 	   32.0000 	   14.7917 
    0.7706 	    9.6100 	   23.0000 	   32.0000 	   14.8257 
    0.8621 	    9.6265 	   23.0000 	   32.0000 	   14.8597 
    0.4654 	    9.6445 	   23.0000 	   32.0000 	   14.8957 
    0.7858 	    9.6615 	   23.0000 	   32.0000 	   14.9297 
    0.8164 	    9.6775 	   23.0000 	   32.0000 	   14.9617 
    0.7401 	    9.6945 	   23.0000 	   32.0000 	   14.9957 
    0.9232 	    9.7125 	   23.0000 	   32.0000 	   15.0317 
    0.8621 	    9.7290 	   23.0000 	   32.0000 	   15.0647 
    0.8621 	    9.7465 	   23.0000 	   32.0000 	   15.0997 
    0.7248 	    9.7635 	   23.0000 	   32.0000 	   15.1337 
    0.8164 	    9.7800 	   23.0000 	   32.0000 	   15.1667 
    0.7553 	    9.7970 	   23.0000 	   32.0000 	   15.2007 
    0.8316 	    9.8135 	   23.0000 	   32.0000 	   15.2337 
    0.8011 	    9.8300 	   23.0000 	   32.0000 	   15.2667 
    0.7706 	    9.8485 	   23.0000 	   32.0000 	   15.3037 
    0.8927 	    9.8655 	   23.0000 	   32.0000 	   15.3377 
    0.8316 	    9.8845 	   23.0000 	   32.0000 	   15.3757 
    0.7095 	    9.9015 	   23.0000 	   32.0000 	   15.4097 
    0.7401 	    9.9175 	   23.0000 	   32.0000 	   15.4417 
    0.7095 	    9.9345 	   23.0000 	   32.0000 	   15.4757 
    0.6943 	    9.9505 	   23.0000 	   32.0000 	   15.5077 
    0.7248 	    9.9675 	   23.0000 	   32.0000 	   15.5417 
    0.9232 	    9.9835 	   23.0000 	   32.0000 	   15.5738 
    0.5264 	   10.0000 	   23.0000 	   32.0000 	   15.6068 
    0.8774 	   10.0165 	   23.0000 	   32.0000 	   15.6398 
    0.8164 	   10.0330 	   23.0000 	   32.0000 	   15.6728 
    0.8774 	   10.0500 	   23.0000 	   32.0000 	   15.7068 
    0.8621 	   10.0675 	   23.0000 	   32.0000 	   15.7418 
    0.7706 	   10.0840 	   23.0000 	   32.0000 	   15.7748 
    0.7401 	   10.1010 	   23.0000 	   32.0000 	   15.8088 
    0.8469 	   10.1180 	   23.0000 	   32.0000 	   15.8428 
    0.8469 	   10.1340 	   23.0000 	   32.0000 	   15.8748 
    0.7858 	   10.1510 	   23.0000 	   32.0000 	   15.9088 
    0.7553 	   10.1680 	   23.0000 	   32.0000 	   15.9428 
    1.0147 	   10.1855 	   23.0000 	   32.0000 	   15.9778 
    0.8621 	   10.2015 	   23.0000 	   32.0000 	   16.0098 
    0.7401 	   10.2195 	   23.0000 	   32.0000 	   16.0458 
    0.8164 	   10.2355 	   23.0000 	   32.0000 	   16.0778 
    0.8774 	   10.2520 	   23.0000 	   32.0000 	   16.1108 
    0.9384 	   10.2675 	   23.0000 	   32.0000 	   16.1418 
    0.8164 	   10.2855 	   23.0000 	   32.0000 	   16.1778 
    0.7858 	   10.3025 	   23.0000 	   32.0000 	   16.2118 
    0.9232 	   10.3185 	   23.0000 	   32.0000 	   16.2438 
    0.5722 	   10.3345 	   23.0000 	   32.0000 	   16.2758 
    0.7706 	   10.3505 	   23.0000 	   32.0000 	   16.3078 
    0.8469 	   10.3665 	   23.0000 	   32.0000 	   16.3398 
    0.9079 	   10.3835 	   23.0000 	   32.0000 	   16.3738 
    0.9384 	   10.4010 	   23.0000 	   32.0000 	   16.4088 
    0.8316 	   10.4180 	   23.0000 	   32.0000 	   16.4428 
    0.7858 	   10.4350 	   23.0000 	   32.0000 	   16.4768 
    0.7858 	   10.4515 	   23.0000 	   32.0000 	   16.5098 
    0.9079 	   10.4680 	   23.0000 	   32.0000 	   16.5428 
    0.9079 	   10.4845 	   23.0000 	   32.0000 	   16.5758 
    0.8011 	   10.5010 	   23.0000 	   32.0000 	   16.6088 
    0.7706 	   10.5165 	   23.0000 	   32.0000 	   16.6398 
    0.7858 	   10.5340 	   23.0000 	   32.0000 	   16.6748 
    0.8774 	   10.5505 	   23.0000 	   32.0000 	   16.7078 
    0.9232 	   10.5670 	   23.0000 	   32.0000 	   16.7408 
    0.8011 	   10.5835 	   23.0000 	   32.0000 	   16.7738 
    0.8927 	   10.5995 	   23.0000 	   32.0000 	   16.8058 
    0.8621 	   10.6170 	   23.0000 	   32.0000 	   16.8408 
    0.9232 	   10.6340 	   23.0000 	   32.0000 	   16.8748 
    0.8774 	   10.6515 	   23.0000 	   32.0000 	   16.9098 
    0.7858 	   10.6680 	   23.0000 	   32.0000 	   16.9428 
    0.9079 	   10.6850 	   23.0000 	   32.0000 	   16.9768 
    0.8316 	   10.7015 	   23.0000 	   32.0000 	   17.0098 
    0.9384 	   10.7175 	   23.0000 	   32.0000 	   17.0418 
    0.8316 	   10.7345 	   23.0000 	   32.0000 	   17.0758 
    0.7401 	   10.7510 	   23.0000 	   32.0000 	   17.1088 
    0.7401 	   10.7665 	   23.0000 	   32.0000 	   17.1398 
    0.8469 	   10.7860 	   23.0000 	   32.0000 	   17.1788 
    0.8774 	   10.8015 	   23.0000 	   32.0000 	   17.2098 
    0.9689 	   10.8180 	   23.0000 	   32.0000 	   17.2428 
    0.8011 	   10.8375 	   23.0000 	   32.0000 	   17.2818 
    0.8164 	   10.8545 	   23.0000 	   32.0000 	   17.3159 
    0.7401 	   10.8710 	   23.0000 	   32.0000 	   17.3489 
    0.8774 	   10.8885 	   23.0000 	   32.0000 	   17.3839 
    0.9995 	   10.9050 	   23.0000 	   32.0000 	   17.4169 
    0.7095 	   10.9205 	   23.0000 	   32.0000 	   17.4479 
    1.0147 	   10.9380 	   23.0000 	   32.0000 	   17.4829 
    0.8927 	   10.9555 	   23.0000 	   32.0000 	   17.5179 
    0.8621 	   10.9725 	   23.0000 	   32.0000 	   17.5519 
    0.8316 	   10.9890 	   23.0000 	   32.0000 	   17.5849 
    0.6790 	   11.0050 	   23.0000 	   32.0000 	   17.6169 
    0.8011 	   11.0260 	   23.0000 	   32.0000 	   17.6589 
    0.8164 	   11.0440 	   23.0000 	   32.0000 	   17.6949 
    0.9079 	   11.0600 	   23.0000 	   32.0000 	   17.7269 
    0.7858 	   11.0760 	   23.0000 	   32.0000 	   17.7589 
    0.7706 	   11.0930 	   23.0000 	   32.0000 	   17.7929 
    0.9995 	   11.1095 	   23.0000 	   32.0000 	   17.8259 
    0.8621 	   11.1260 	   23.0000 	   32.0000 	   17.8589 
    0.9232 	   11.1425 	   23.0000 	   32.0000 	   17.8919 
    0.7706 	   11.1590 	   23.0000 	   32.0000 	   17.9249 
    0.8469 	   11.1750 	   23.0000 	   32.0000 	   17.9569 
    1.0605 	   11.1920 	   23.0000 	   32.0000 	   17.9909 
    0.9537 	   11.2090 	   23.0000 	   32.0000 	   18.0249 
    0.7858 	   11.2255 	   23.0000 	   32.0000 	   18.0579 
    0.9384 	   11.2440 	   23.0000 	   32.0000 	   18.0949 
    0.8774 	   11.2605 	   23.0000 	   32.0000 	   18.1279 
    0.8011 	   11.2770 	   23.0000 	   32.0000 	   18.1609 
    0.7095 	   11.2930 	   23.0000 	   32.0000 	   18.1929 
    0.9232 	   11.3100 	   23.0000 	   32.0000 	   18.2269 
    0.7858 	   11.3260 	   23.0000 	   32.0000 	   18.2589 
    0.9384 	   11.3430 	   23.0000 	   32.0000 	   18.2929 
    0.8316 	   11.3600 	   23.0000 	   32.0000 	   18.3269 
    0.8621 	   11.3760 	   23.0000 	   32.0000 	   18.3589 
    0.9384 	   11.3930 	   23.0000 	   32.0000 	   18.3929 
    0.8469 	   11.4095 	   23.0000 	   32.0000 	   18.4259 
    0.7401 	   11.4260 	   23.0000 	   32.0000 	   18.4589 
    0.6180 	   11.4440 	   23.0000 	   32.0000 	   18.4949 
    0.8316 	   11.4610 	   23.0000 	   32.0000 	   18.5289 
    0.8469 	   11.4780 	   23.0000 	   32.0000 	   18.5629 
    0.8011 	   11.4950 	   23.0000 	   32.0000 	   18.5969 
    0.6027 	   11.5115 	   23.0000 	   32.0000 	   18.6299 
    0.9689 	   11.5285 	   23.0000 	   32.0000 	   18.6639 
    0.9232 	   11.5455 	   23.0000 	   32.0000 	   18.6979 
    0.7858 	   11.5635 	   23.0000 	   32.0000 	   18.7339 
    0.8621 	   11.5805 	   23.0000 	   32.0000 	   18.7679 
    0.8164 	   11.5975 	   23.0000 	   32.0000 	   18.8019 
    0.9079 	   11.6155 	   23.0000 	   32.0000 	   18.8379 
    0.8774 	   11.6320 	   23.0000 	   32.0000 	   18.8709 
    0.8164 	   11.6520 	   23.0000 	   32.0000 	   18.9109 
    0.7706 	   11.6685 	   23.0000 	   32.0000 	   18.9439 
    0.7401 	   11.6850 	   23.0000 	   32.0000 	   18.9769 
    1.0605 	   11.7010 	   23.0000 	   32.0000 	   19.0089 
    0.8621 	   11.7185 	   23.0000 	   32.0000 	   19.0439 
    1.0452 	   11.7345 	   23.0000 	   32.0000 	   19.0760 
    0.8164 	   11.7520 	   23.0000 	   32.0000 	   19.1110 
    0.9232 	   11.7695 	   23.0000 	   32.0000 	   19.1460 
    0.9689 	   11.7850 	   23.0000 	   32.0000 	   19.1770 
    0.9232 	   11.8025 	   23.0000 	   32.0000 	   19.2120 
    0.8011 	   11.8195 	   23.0000 	   32.0000 	   19.2460 
    0.8774 	   11.8390 	   23.0000 	   32.0000 	   19.2850 
    0.7706 	   11.8565 	   23.0000 	   32.0000 	   19.3200 
    0.8621 	   11.8735 	   23.0000 	   32.0000 	   19.3540 
    0.9384 	   11.8905 	   23.0000 	   32.0000 	   19.3880 
    0.8469 	   11.9090 	   23.0000 	   32.0000 	   19.4250 
    0.9079 	   11.9270 	   23.0000 	   32.0000 	   19.4610 
    0.9689 	   11.9430 	   23.0000 	   32.0000 	   19.4930 
    0.8621 	   11.9600 	   23.0000 	   32.0000 	   19.5270 
    0.8927 	   11.9765 	   23.0000 	   32.0000 	   19.5600 
    0.8621 	   11.9925 	   23.0000 	   32.0000 	   19.5920 
    0.9232 	   12.0100 	   23.0000 	   32.0000 	   19.6270 
    0.7095 	   12.0270 	   23.0000 	   32.0000 	   19.6610 
    0.9232 	   12.0460 	   23.0000 	   32.0000 	   19.6990 
    1.0147 	   12.0630 	   23.0000 	   32.0000 	   19.7330 
    1.0452 	   12.0795 	   23.0000 	   32.0000 	   19.7660 
    0.8469 	   12.0975 	   23.0000 	   32.0000 	   19.8020 
    0.5722 	   12.1150 	   23.0000 	   32.0000 	   19.8370 
    0.9537 	   12.1315 	   23.0000 	   32.0000 	   19.8700 
    0.9232 	   12.1490 	   23.0000 	   32.0000 	   19.9050 
    0.8621 	   12.1650 	   23.0000 	   32.0000 	   19.9370 
    0.8621 	   12.1800 	   23.0000 	   32.0000 	   19.9670 
    0.9079 	   12.1965 	   23.0000 	   32.0000 	   20.0000 
    0.9079 	   12.2130 	   23.0000 	   32.0000 	   20.0330 
    0.9995 	   12.2300 	   23.0000 	   32.0000 	   20.0670 
    0.9384 	   12.2485 	   23.0000 	   32.0000 	   20.1040 
    0.9995 	   12.2675 	   23.0000 	   32.0000 	   20.1420 
    0.8774 	   12.2855 	   23.0000 	   32.0000 	   20.1780 
    0.8316 	   12.3050 	   23.0000 	   32.0000 	   20.2170 
    0.8774 	   12.3230 	   23.0000 	   32.0000 	   20.2530 
    0.9384 	   12.3410 	   23.0000 	   32.0000 	   20.2890 
    0.9384 	   12.3575 	   23.0000 	   32.0000 	   20.3220 
    0.9537 	   12.3745 	   23.0000 	   32.0000 	   20.3560 
    0.9079 	   12.3910 	   23.0000 	   32.0000 	   20.3890 
    0.8621 	   12.4090 	   23.0000 	   32.0000 	   20.4250 
    0.8927 	   12.4265 	   23.0000 	   32.0000 	   20.4600 
    0.6790 	   12.4440 	   23.0000 	   32.0000 	   20.4950 
    0.9079 	   12.4610 	   23.0000 	   32.0000 	   20.5290 
    0.6790 	   12.4770 	   23.0000 	   32.0000 	   20.5610 
    0.9384 	   12.4935 	   23.0000 	   32.0000 	   20.5940 
    0.9537 	   12.5105 	   23.0000 	   32.0000 	   20.6280 
    0.8316 	   12.5260 	   23.0000 	   32.0000 	   20.6590 
    0.9689 	   12.5445 	   23.0000 	   32.0000 	   20.6960 
    0.9232 	   12.5610 	   23.0000 	   32.0000 	   20.7290 
    0.8621 	   12.5780 	   23.0000 	   32.0000 	   20.7630 
    0.6790 	   12.5940 	   23.0000 	   32.0000 	   20.7950 
    0.9537 	   12.6105 	   23.0000 	   32.0000 	   20.8281 
    1.0452 	   12.6280 	   23.0000 	   32.0000 	   20.8631 
    1.0300 	   12.6445 	   23.0000 	   32.0000 	   20.8961 
    0.7706 	   12.6610 	   23.0000 	   32.0000 	   20.9291 
    0.9995 	   12.6790 	   23.0000 	   32.0000 	   20.9651 
    0.9079 	   12.6960 	   23.0000 	   32.0000 	   20.9991 
    1.0147 	   12.7130 	   23.0000 	   32.0000 	   21.0331 
    0.8011 	   12.7305 	   23.0000 	   32.0000 	   21.0681 
    0.8774 	   12.7485 	   23.0000 	   32.0000 	   21.1041 
    0.9842 	   12.7655 	   23.0000 	   32.0000 	   21.1381 
    0.7858 	   12.7820 	   23.0000 	   32.0000 	   21.1711 
    0.8316 	   12.8005 	   23.0000 	   32.0000 	   21.2081 
    0.9995 	   12.8185 	   23.0000 	   32.0000 	   21.2441 
    0.8774 	   12.8355 	   23.0000 	   32.0000 	   21.2781 
    0.8316 	   12.8530 	   23.0000 	   32.0000 	   21.3131 
    0.9842 	   12.8695 	   23.0000 	   32.0000 	   21.3461 
    0.9842 	   12.8870 	   23.0000 	   32.0000 	   21.3811 
    0.9384 	   12.9035 	   23.0000 	   32.0000 	   21.4141 
    0.9079 	   12.9215 	   23.0000 	   32.0000 	   21.4501 
    0.8774 	   12.9385 	   23.0000 	   32.0000 	   21.4841 
    0.5264 	   12.9565 	   23.0000 	   32.0000 	   21.5201 
    0.9384 	   12.9745 	   23.0000 	   32.0000 	   21.5561 
    0.9537 	   12.9920 	   23.0000 	   32.0000 	   21.5911 
    0.9842 	   13.0105 	   23.0000 	   32.0000 	   21.6281 
    0.9842 	   13.0275 	   23.0000 	   32.0000 	   21.6621 
    1.0300 	   13.0465 	   23.0000 	   32.0000 	   21.7001 
    0.9689 	   13.0650 	   23.0000 	   32.0000 	   21.7371 
    0.9842 	   13.0825 	   23.0000 	   32.0000 	   21.7721 
    0.9842 	   13.0995 	   23.0000 	   32.0000 	   21.8061 
    1.0147 	   13.1160 	   23.0000 	   32.0000 	   21.8391 
    0.8774 	   13.1330 	   23.0000 	   32.0000 	   21.8731 
    0.9689 	   13.1505 	   23.0000 	   32.0000 	   21.9081 
    0.8621 	   13.1690 	   23.0000 	   32.0000 	   21.9451 
    0.9079 	   13.1865 	   23.0000 	   32.0000 	   21.9801 
    1.0452 	   13.2040 	   23.0000 	   32.0000 	   22.0151 
    0.8927 	   13.2220 	   23.0000 	   32.0000 	   22.0511 
    0.8469 	   13.2400 	   23.0000 	   32.0000 	   22.0871 
    0.9537 	   13.2580 	   23.0000 	   32.0000 	   22.1231 
    0.8927 	   13.2750 	   23.0000 	   32.0000 	   22.1571 
    0.9384 	   13.2940 	   23.0000 	   32.0000 	   22.1951 
    1.0147 	   13.3125 	   23.0000 	   32.0000 	   22.2321 
    0.9689 	   13.3295 	   23.0000 	   32.0000 	   22.2661 
    1.1368 	   13.3475 	   23.0000 	   32.0000 	   22.3021 
    0.8011 	   13.3655 	   23.0000 	   32.0000 	   22.3381 
    0.9995 	   13.3840 	   23.0000 	   32.0000 	   22.3751 
    1.0758 	   13.4020 	   23.0000 	   32.0000 	   22.4111 
    0.9842 	   13.4185 	   23.0000 	   32.0000 	   22.4441 
    0.9079 	   13.4360 	   23.0000 	   32.0000 	   22.4791 
    0.9995 	   13.4530 	   23.0000 	   32.0000 	   22.5131 
    0.8927 	   13.4700 	   23.0000 	   32.0000 	   22.5471 
    0.9995 	   13.4870 	   23.0000 	   32.0000 	   22.5812 
    0.9995 	   13.5045 	   23.0000 	   32.0000 	   22.6162 
    1.0452 	   13.5220 	   23.0000 	   32.0000 	   22.6512 
    1.0452 	   13.5420 	   23.0000 	   32.0000 	   22.6912 
    0.9232 	   13.5600 	   23.0000 	   32.0000 	   22.7272 
    0.9537 	   13.5765 	   23.0000 	   32.0000 	   22.7602 
    0.9079 	   13.5940 	   23.0000 	   32.0000 	   22.7952 
    0.9537 	   13.6110 	   23.0000 	   32.0000 	   22.8292 
    1.0300 	   13.6280 	   23.0000 	   32.0000 	   22.8632 
    1.0452 	   13.6450 	   23.0000 	   32.0000 	   22.8972 
    0.9384 	   13.6615 	   23.0000 	   32.0000 	   22.9302 
    1.0147 	   13.6780 	   23.0000 	   32.0000 	   22.9632 
    0.9995 	   13.6950 	   23.0000 	   32.0000 	   22.9972 
    0.8469 	   13.7120 	   23.0000 	   32.0000 	   23.0312 
    1.0605 	   13.7290 	   23.0000 	   32.0000 	   23.0652 
    1.0910 	   13.7460 	   23.0000 	   32.0000 	   23.0992 
    0.9537 	   13.7630 	   23.0000 	   32.0000 	   23.1332 
    0.8774 	   13.7800 	   23.0000 	   32.0000 	   23.1672 
    1.0147 	   13.7985 	   23.0000 	   32.0000 	   23.2042 
    0.9537 	   13.8170 	   23.0000 	   32.0000 	   23.2412 
    1.1063 	   13.8345 	   23.0000 	   32.0000 	   23.2762 
    1.0147 	   13.8515 	   23.0000 	   32.0000 	   23.3102 
    1.0605 	   13.8705 	   23.0000 	   32.0000 	   23.3482 
    0.9537 	   13.8870 	   23.0000 	   32.0000 	   23.3812 
    1.0758 	   13.9045 	   23.0000 	   32.0000 	   23.4162 
    1.0300 	   13.9215 	   23.0000 	   32.0000 	   23.4502 
    1.0452 	   13.9385 	   23.0000 	   32.0000 	   23.4842 
    1.0758 	   13.9550 	   23.0000 	   32.0000 	   23.5172 
    1.0147 	   13.9720 	   23.0000 	   32.0000 	   23.5512 
    1.0300 	   13.9890 	   23.0000 	   32.0000 	   23.5852 
    0.9995 	   14.0075 	   23.0000 	   32.0000 	   23.6222 
    1.1521 	   14.0255 	   23.0000 	   32.0000 	   23.6582 
    0.9079 	   14.0440 	   23.0000 	   32.0000 	   23.6952 
    0.7401 	   14.0610 	   23.0000 	   32.0000 	   23.7292 
    0.9079 	   14.0785 	   23.0000 	   32.0000 	   23.7642 
    0.9537 	   14.0960 	   23.0000 	   32.0000 	   23.7992 
    1.0452 	   14.1135 	   23.0000 	   32.0000 	   23.8342 
    1.0147 	   14.1315 	   23.0000 	   32.0000 	   23.8702 
    0.9689 	   14.1495 	   23.0000 	   32.0000 	   23.9062 
    0.9537 	   14.1665 	   23.0000 	   32.0000 	   23.9402 
    1.1063 	   14.1825 	   23.0000 	   32.0000 	   23.9722 
    0.9995 	   14.2005 	   23.0000 	   32.0000 	   24.0082 
    0.9842 	   14.2180 	   23.0000 	   32.0000 	   24.0432 
    0.6790 	   14.2360 	   23.0000 	   32.0000 	   24.0792 
    1.0452 	   14.2535 	   23.0000 	   32.0000 	   24.1132 
    1.0452 	   14.2715 	   23.0000 	   32.0000 	   24.1492 
    1.1063 	   14.2890 	   23.0000 	   32.0000 	   24.1842 
    1.1215 	   14.3070 	   23.0000 	   32.0000 	   24.2202 
    1.1215 	   14.3255 	   23.0000 	   32.0000 	   24.2572 
    0.9689 	   14.3425 	   23.0000 	   32.0000 	   24.2913 
    1.0758 	   14.3605 	   23.0000 	   32.0000 	   24.3273 
    1.1978 	   14.3785 	   23.0000 	   32.0000 	   24.3633 
    0.9995 	   14.3955 	   23.0000 	   32.0000 	   24.3973 
    0.6943 	   14.4130 	   23.0000 	   32.0000 	   24.4323 
    0.9384 	   14.4295 	   23.0000 	   32.0000 	   24.4653 
    1.0605 	   14.4465 	   23.0000 	   32.0000 	   24.4993 
    1.0910 	   14.4640 	   23.0000 	   32.0000 	   24.5343 
    1.0147 	   14.4815 	   23.0000 	   32.0000 	   24.5693 
    1.0300 	   14.4990 	   23.0000 	   32.0000 	   24.6043 
    1.0147 	   14.5175 	   23.0000 	   32.0000 	   24.6413 
    1.1673 	   14.5345 	   23.0000 	   32.0000 	   24.6753 
    1.1063 	   14.5535 	   23.0000 	   32.0000 	   24.7133 
    0.9384 	   14.5685 	   23.0000 	   32.0000 	   24.7433 
    1.0452 	   14.5840 	   23.0000 	   32.0000 	   24.7743 
    0.9384 	   14.5990 	   23.0000 	   32.0000 	   24.8043 
    0.9995 	   14.6145 	   23.0000 	   32.0000 	   24.8353 
    0.9995 	   14.6300 	   23.0000 	   32.0000 	   24.8663 
    0.9689 	   14.6460 	   23.0000 	   32.0000 	   24.8983 
    0.9842 	   14.6610 	   23.0000 	   32.0000 	   24.9283 
    0.9842 	   14.6765 	   23.0000 	   32.0000 	   24.9593 
    0.8621 	   14.6920 	   23.0000 	   32.0000 	   24.9903 
    0.9995 	   14.7070 	   23.0000 	   32.0000 	   25.0203 
    0.8774 	   14.7235 	   23.0000 	   32.0000 	   25.0533 
    0.9232 	   14.7390 	   23.0000 	   32.0000 	   25.0843 
    0.9384 	   14.7560 	   23.0000 	   32.0000 	   25.1183 
    1.0452 	   14.7735 	   23.0000 	   32.0000 	   25.1533 
    1.0452 	   14.7930 	   23.0000 	   32.0000 	   25.1923 
    1.0758 	   14.8105 	   23.0000 	   32.0000 	   25.2273 
    1.0910 	   14.8280 	   23.0000 	   32.0000 	   25.2623 
    1.0452 	   14.8450 	   23.0000 	   32.0000 	   25.2963 
    0.9995 	   14.8625 	   23.0000 	   32.0000 	   25.3313 
    1.0147 	   14.8795 	   23.0000 	   32.0000 	   25.3653 
    1.0758 	   14.8970 	   23.0000 	   32.0000 	   25.4003 
    1.0910 	   14.9140 	   23.0000 	   32.0000 	   25.4343 
    0.9842 	   14.9320 	   23.0000 	   32.0000 	   25.4703 
    1.0452 	   14.9495 	   23.0000 	   32.0000 	   25.5053 
    0.9842 	   14.9675 	   23.0000 	   32.0000 	   25.5413 
    1.0452 	   14.9855 	   23.0000 	   32.0000 	   25.5773 
    1.1978 	   15.0035 	   23.0000 	   32.0000 	   25.6133 
    1.1368 	   15.0260 	   23.0000 	   32.0000 	   25.6583 
    0.9537 	   15.0465 	   23.0000 	   32.0000 	   25.6993 
    0.9232 	   15.0635 	   23.0000 	   32.0000 	   25.7333 
    1.1063 	   15.0810 	   23.0000 	   32.0000 	   25.7683 
    1.0452 	   15.0995 	   23.0000 	   32.0000 	   25.8053 
    1.0300 	   15.1185 	   23.0000 	   32.0000 	   25.8433 
    1.0300 	   15.1355 	   23.0000 	   32.0000 	   25.8773 
    0.9995 	   15.1530 	   23.0000 	   32.0000 	   25.9123 
    1.0147 	   15.1715 	   23.0000 	   32.0000 	   25.9493 
    1.1063 	   15.1895 	   23.0000 	   32.0000 	   25.9853 
    1.0300 	   15.2070 	   23.0000 	   32.0000 	   26.0203 
    0.8621 	   15.2245 	   23.0000 	   32.0000 	   26.0554 
    1.2131 	   15.2420 	   23.0000 	   32.0000 	   26.0904 
    1.0147 	   15.2595 	   23.0000 	   32.0000 	   26.1254 
    1.1978 	   15.2790 	   23.0000 	   32.0000 	   26.1644 
    1.0300 	   15.2965 	   23.0000 	   32.0000 	   26.1994 
    1.0300 	   15.3145 	   23.0000 	   32.0000 	   26.2354 
    0.8927 	   15.3315 	   23.0000 	   32.0000 	   26.2694 
    1.1063 	   15.3495 	   23.0000 	   32.0000 	   26.3054 
    1.0452 	   15.3685 	   23.0000 	   32.0000 	   26.3434 
    1.1215 	   15.3865 	   23.0000 	   32.0000 	   26.3794 
    1.1368 	   15.4045 	   23.0000 	   32.0000 	   26.4154 
    1.0300 	   15.4220 	   23.0000 	   32.0000 	   26.4504 
    1.2589 	   15.4400 	   23.0000 	   32.0000 	   26.4864 
    1.0605 	   15.4585 	   23.0000 	   32.0000 	   26.5234 
    1.1368 	   15.4765 	   23.0000 	   32.0000 	   26.5594 
    1.0452 	   15.4930 	   23.0000 	   32.0000 	   26.5924 
    0.9842 	   15.5105 	   23.0000 	   32.0000 	   26.6274 
    1.1215 	   15.5265 	   23.0000 	   32.0000 	   26.6594 
    0.9995 	   15.5435 	   23.0000 	   32.0000 	   26.6934 
    1.1826 	   15.5590 	   23.0000 	   32.0000 	   26.7244 
    1.1673 	   15.5740 	   23.0000 	   32.0000 	   26.7544 
    1.1521 	   15.5900 	   23.0000 	   32.0000 	   26.7864 
    1.1826 	   15.6055 	   23.0000 	   32.0000 	   26.8174 
    1.0452 	   15.6220 	   23.0000 	   32.0000 	   26.8504 
    1.1521 	   15.6370 	   23.0000 	   32.0000 	   26.8804 
    1.0452 	   15.6535 	   23.0000 	   32.0000 	   26.9134 
    1.0452 	   15.6705 	   23.0000 	   32.0000 	   26.9474 
    1.1978 	   15.6870 	   23.0000 	   32.0000 	   26.9804 
    1.0147 	   15.7025 	   23.0000 	   32.0000 	   27.0114 
    1.1063 	   15.7185 	   23.0000 	   32.0000 	   27.0434 
    1.2894 	   15.7345 	   23.0000 	   32.0000 	   27.0754 
    1.1521 	   15.7525 	   23.0000 	   32.0000 	   27.1114 
    1.2131 	   15.7705 	   23.0000 	   32.0000 	   27.1474 
    1.2284 	   15.7870 	   23.0000 	   32.0000 	   27.1804 
    1.0910 	   15.8055 	   23.0000 	   32.0000 	   27.2174 
    1.0910 	   15.8220 	   23.0000 	   32.0000 	   27.2504 
    0.7706 	   15.8400 	   23.0000 	   32.0000 	   27.2864 
    1.0605 	   15.8580 	   23.0000 	   32.0000 	   27.3224 
    1.0605 	   15.8755 	   23.0000 	   32.0000 	   27.3574 
    1.1978 	   15.8930 	   23.0000 	   32.0000 	   27.3924 
    1.0758 	   15.9105 	   23.0000 	   32.0000 	   27.4274 
    1.0452 	   15.9290 	   23.0000 	   32.0000 	   27.4644 
    1.2131 	   15.9470 	   23.0000 	   32.0000 	   27.5004 
    1.0605 	   15.9640 	   23.0000 	   32.0000 	   27.5344 
    1.1215 	   15.9820 	   23.0000 	   32.0000 	   27.5704 
    1.1978 	   16.0000 	   23.0000 	   32.0000 	   27.6064 
    1.1826 	   16.0175 	   23.0000 	   32.0000 	   27.6414 
    1.1673 	   16.0360 	   23.0000 	   32.0000 	   27.6784 
    1.3657 	   16.0535 	   23.0000 	   32.0000 	   27.7134 
    1.0452 	   16.0700 	   23.0000 	   32.0000 	   27.7464 
    1.2284 	   16.0880 	   23.0000 	   32.0000 	   27.7824 
    1.2284 	   16.1045 	   23.0000 	   32.0000 	   27.8155 
    1.1063 	   16.1215 	   23.0000 	   32.0000 	   27.8495 
    1.0758 	   16.1390 	   23.0000 	   32.0000 	   27.8845 
    1.1673 	   16.1565 	   23.0000 	   32.0000 	   27.9195 
    1.0452 	   16.1740 	   23.0000 	   32.0000 	   27.9545 
    1.1521 	   16.1920 	   23.0000 	   32.0000 	   27.9905 
    1.0758 	   16.2095 	   23.0000 	   32.0000 	   28.0255 
    1.1063 	   16.2275 	   23.0000 	   32.0000 	   28.0615 
    1.1521 	   16.2450 	   23.0000 	   32.0000 	   28.0965 
    1.2589 	   16.2615 	   23.0000 	   32.0000 	   28.1295 
    1.2589 	   16.2780 	   23.0000 	   32.0000 	   28.1625 
    1.1978 	   16.2955 	   23.0000 	   32.0000 	   28.1975 
    1.2894 	   16.3135 	   23.0000 	   32.0000 	   28.2335 
    1.1063 	   16.3315 	   23.0000 	   32.0000 	   28.2695 
    1.1215 	   16.3530 	   23.0000 	   32.0000 	   28.3125 
    1.1826 	   16.3735 	   23.0000 	   32.0000 	   28.3535 
    1.1368 	   16.3890 	   23.0000 	   32.0000 	   28.3845 
    1.0758 	   16.4040 	   23.0000 	   32.0000 	   28.4145 
    1.0605 	   16.4195 	   23.0000 	   32.0000 	   28.4455 
    1.3046 	   16.4365 	   23.0000 	   32.0000 	   28.4795 
    0.9079 	   16.4555 	   23.0000 	   32.0000 	   28.5175 
    1.1368 	   16.4735 	   23.0000 	   32.0000 	   28.5535 
    0.9995 	   16.4915 	   23.0000 	   32.0000 	   28.5895 
    1.0452 	   16.5090 	   23.0000 	   32.0000 	   28.6245 
    1.1368 	   16.5265 	   23.0000 	   32.0000 	   28.6595 
    1.2131 	   16.5460 	   23.0000 	   32.0000 	   28.6985 
    1.2284 	   16.5640 	   23.0000 	   32.0000 	   28.7345 
    1.1673 	   16.5820 	   23.0000 	   32.0000 	   28.7705 
    1.0758 	   16.6010 	   23.0000 	   32.0000 	   28.8085 
    1.0605 	   16.6195 	   23.0000 	   32.0000 	   28.8455 
    1.1521 	   16.6375 	   23.0000 	   32.0000 	   28.8815 
    1.1521 	   16.6555 	   23.0000 	   32.0000 	   28.9175 
    1.2741 	   16.6735 	   23.0000 	   32.0000 	   28.9535 
    1.1368 	   16.6930 	   23.0000 	   32.0000 	   28.9925 
    1.1368 	   16.7115 	   23.0000 	   32.0000 	   29.0295 
    1.1978 	   16.7290 	   23.0000 	   32.0000 	   29.0645 
    1.2741 	   16.7465 	   23.0000 	   32.0000 	   29.0995 
    1.0758 	   16.7635 	   23.0000 	   32.0000 	   29.1335 
    1.1063 	   16.7790 	   23.0000 	   32.0000 	   29.1645 
    1.1521 	   16.7955 	   23.0000 	   32.0000 	   29.1975 
    1.1826 	   16.8115 	   23.0000 	   32.0000 	   29.2295 
    1.2131 	   16.8275 	   23.0000 	   32.0000 	   29.2615 
    1.0910 	   16.8430 	   23.0000 	   32.0000 	   29.2925 
    1.2436 	   16.8600 	   23.0000 	   32.0000 	   29.3265 
    1.1368 	   16.8765 	   23.0000 	   32.0000 	   29.3595 
    1.1978 	   16.8940 	   23.0000 	   32.0000 	   29.3945 
    1.2741 	   16.9115 	   23.0000 	   32.0000 	   29.4295 
    1.1826 	   16.9300 	   23.0000 	   32.0000 	   29.4665 
    0.9689 	   16.9470 	   23.0000 	   32.0000 	   29.5005 
    1.2589 	   16.9650 	   23.0000 	   32.0000 	   29.5366 
    1.2436 	   16.9835 	   23.0000 	   32.0000 	   29.5736 
    1.2131 	   17.0010 	   23.0000 	   32.0000 	   29.6086 
    1.2131 	   17.0260 	   23.0000 	   32.0000 	   29.6586 
    1.1978 	   17.0435 	   23.0000 	   32.0000 	   29.6936 
    1.2741 	   17.0610 	   23.0000 	   32.0000 	   29.7286 
    1.1063 	   17.0785 	   23.0000 	   32.0000 	   29.7636 
    1.1673 	   17.0965 	   23.0000 	   32.0000 	   29.7996 
    1.0300 	   17.1135 	   23.0000 	   32.0000 	   29.8336 
    1.1368 	   17.1305 	   23.0000 	   32.0000 	   29.8676 
    1.2589 	   17.1480 	   23.0000 	   32.0000 	   29.9026 
    1.1978 	   17.1665 	   23.0000 	   32.0000 	   29.9396 
    1.1368 	   17.1850 	   23.0000 	   32.0000 	   29.9766 
    1.3046 	   17.2025 	   23.0000 	   32.0000 	   30.0116 
    1.0605 	   17.2205 	   23.0000 	   32.0000 	   30.0476 
    1.2436 	   17.2380 	   23.0000 	   32.0000 	   30.0826 
    1.2894 	   17.2560 	   23.0000 	   32.0000 	   30.1186 
    1.2589 	   17.2740 	   23.0000 	   32.0000 	   30.1546 
    1.1978 	   17.2915 	   23.0000 	   32.0000 	   30.1896 
    1.2436 	   17.3100 	   23.0000 	   32.0000 	   30.2266 
    1.2741 	   17.3285 	   23.0000 	   32.0000 	   30.2636 
    1.2284 	   17.3475 	   23.0000 	   32.0000 	   30.3016 
    1.2894 	   17.3655 	   23.0000 	   32.0000 	   30.3376 
    1.1521 	   17.3840 	   23.0000 	   32.0000 	   30.3746 
    1.1978 	   17.4020 	   23.0000 	   32.0000 	   30.4106 
    1.3352 	   17.4190 	   23.0000 	   32.0000 	   30.4446 
    1.2436 	   17.4365 	   23.0000 	   32.0000 	   30.4796 
    1.2894 	   17.4535 	   23.0000 	   32.0000 	   30.5136 
    1.0300 	   17.4710 	   23.0000 	   32.0000 	   30.5486 
    1.2284 	   17.4880 	   23.0000 	   32.0000 	   30.5826 
    1.2894 	   17.5055 	   23.0000 	   32.0000 	   30.6176 
    1.1978 	   17.5235 	   23.0000 	   32.0000 	   30.6536 
    1.2436 	   17.5425 	   23.0000 	   32.0000 	   30.6916 
    1.4267 	   17.5595 	   23.0000 	   32.0000 	   30.7256 
    1.2436 	   17.5775 	   23.0000 	   32.0000 	   30.7616 
    1.1673 	   17.5965 	   23.0000 	   32.0000 	   30.7996 
    1.3504 	   17.6140 	   23.0000 	   32.0000 	   30.8346 
    1.0910 	   17.6320 	   23.0000 	   32.0000 	   30.8706 
    1.1826 	   17.6505 	   23.0000 	   32.0000 	   30.9076 
    1.2894 	   17.6685 	   23.0000 	   32.0000 	   30.9436 
    0.9537 	   17.6865 	   23.0000 	   32.0000 	   30.9796 
    1.2894 	   17.7045 	   23.0000 	   32.0000 	   31.0156 
    1.2894 	   17.7215 	   23.0000 	   32.0000 	   31.0496 
    1.1978 	   17.7390 	   23.0000 	   32.0000 	   31.0846 
    1.1673 	   17.7565 	   23.0000 	   32.0000 	   31.1196 
    1.1826 	   17.7735 	   23.0000 	   32.0000 	   31.1536 
    1.2436 	   17.7905 	   23.0000 	   32.0000 	   31.1876 
    1.2131 	   17.8060 	   23.0000 	   32.0000 	   31.2186 
    1.2741 	   17.8220 	   23.0000 	   32.0000 	   31.2506 
    1.3504 	   17.8390 	   23.0000 	   32.0000 	   31.2847 
    1.3046 	   17.8555 	   23.0000 	   32.0000 	   31.3177 
    1.1673 	   17.8730 	   23.0000 	   32.0000 	   31.3527 
    1.1673 	   17.8910 	   23.0000 	   32.0000 	   31.3877 
    1.2284 	   17.9090 	   23.0000 	   32.0000 	   31.4247 
    1.2894 	   17.9285 	   23.0000 	   32.0000 	   31.4637 
    1.3046 	   17.9460 	   23.0000 	   32.0000 	   31.4987 
    1.2131 	   17.9640 	   23.0000 	   32.0000 	   31.5347 
    1.2741 	   17.9815 	   23.0000 	   32.0000 	   31.5697 
    1.3046 	   17.9990 	   23.0000 	   32.0000 	   31.6047 
    1.3046 	   18.0165 	   23.0000 	   32.0000 	   31.6397 
    1.3046 	   18.0325 	   23.0000 	   32.0000 	   31.6717 
    1.2436 	   18.0505 	   23.0000 	   32.0000 	   31.7077 
    1.3352 	   18.0685 	   23.0000 	   32.0000 	   31.7437 
    1.2894 	   18.0855 	   23.0000 	   32.0000 	   31.7777 
    1.3809 	   18.1030 	   23.0000 	   32.0000 	   31.8127 
    1.1978 	   18.1210 	   23.0000 	   32.0000 	   31.8487 
    1.3046 	   18.1385 	   23.0000 	   32.0000 	   31.8837 
    1.1978 	   18.1560 	   23.0000 	   32.0000 	   31.9187 
    1.1673 	   18.1740 	   23.0000 	   32.0000 	   31.9547 
    1.3962 	   18.1925 	   23.0000 	   32.0000 	   31.9917 
    1.3504 	   18.2105 	   23.0000 	   32.0000 	   32.0277 
    1.3504 	   18.2285 	   23.0000 	   32.0000 	   32.0637 
    1.3199 	   18.2470 	   23.0000 	   32.0000 	   32.1007 
    1.1978 	   18.2640 	   23.0000 	   32.0000 	   32.1347 
    1.3504 	   18.2820 	   23.0000 	   32.0000 	   32.1707 
    1.2589 	   18.3010 	   23.0000 	   32.0000 	   32.2087 
    1.2436 	   18.3190 	   23.0000 	   32.0000 	   32.2447 
    1.3046 	   18.3360 	   23.0000 	   32.0000 	   32.2787 
    1.3657 	   18.3550 	   23.0000 	   32.0000 	   32.3167 
    1.2436 	   18.3725 	   23.0000 	   32.0000 	   32.3517 
    1.1978 	   18.3900 	   23.0000 	   32.0000 	   32.3867 
    1.3046 	   18.4085 	   23.0000 	   32.0000 	   32.4237 
    1.3962 	   18.4260 	   23.0000 	   32.0000 	   32.4587 
    1.2131 	   18.4430 	   23.0000 	   32.0000 	   32.4927 
    1.3809 	   18.4610 	   23.0000 	   32.0000 	   32.5287 
    1.3504 	   18.4790 	   23.0000 	   32.0000 	   32.5647 
    1.3352 	   18.4965 	   23.0000 	   32.0000 	   32.5997 
    1.1063 	   18.5140 	   23.0000 	   32.0000 	   32.6347 
    1.3962 	   18.5320 	   23.0000 	   32.0000 	   32.6707 
    1.2894 	   18.5515 	   23.0000 	   32.0000 	   32.7097 
    1.3199 	   18.5690 	   23.0000 	   32.0000 	   32.7447 
    1.2741 	   18.5860 	   23.0000 	   32.0000 	   32.7787 
    1.2894 	   18.6040 	   23.0000 	   32.0000 	   32.8147 
    1.2436 	   18.6220 	   23.0000 	   32.0000 	   32.8507 
    1.3199 	   18.6395 	   23.0000 	   32.0000 	   32.8857 
    1.1673 	   18.6575 	   23.0000 	   32.0000 	   32.9217 
    1.4420 	   18.6750 	   23.0000 	   32.0000 	   32.9567 
    1.2436 	   18.6930 	   23.0000 	   32.0000 	   32.9927 
    1.3046 	   18.7110 	   23.0000 	   32.0000 	   33.0288 
    1.3809 	   18.7295 	   23.0000 	   32.0000 	   33.0658 
    1.3199 	   18.7465 	   23.0000 	   32.0000 	   33.0998 
    1.3352 	   18.7650 	   23.0000 	   32.0000 	   33.1368 
    1.3962 	   18.7825 	   23.0000 	   32.0000 	   33.1718 
    1.4725 	   18.7995 	   23.0000 	   32.0000 	   33.2058 
    1.2131 	   18.8175 	   23.0000 	   32.0000 	   33.2418 
    1.2741 	   18.8355 	   23.0000 	   32.0000 	   33.2778 
    1.3046 	   18.8540 	   23.0000 	   32.0000 	   33.3148 
    1.3046 	   18.8715 	   23.0000 	   32.0000 	   33.3498 
    1.3199 	   18.8895 	   23.0000 	   32.0000 	   33.3858 
    1.2436 	   18.9070 	   23.0000 	   32.0000 	   33.4208 
    1.3199 	   18.9250 	   23.0000 	   32.0000 	   33.4568 
    1.3962 	   18.9430 	   23.0000 	   32.0000 	   33.4928 
    1.2741 	   18.9610 	   23.0000 	   32.0000 	   33.5288 
    1.5335 	   18.9800 	   23.0000 	   32.0000 	   33.5668 
    1.0910 	   18.9980 	   23.0000 	   32.0000 	   33.6028 
    1.3657 	   19.0260 	   23.0000 	   32.0000 	   33.6588 
    1.3962 	   19.0420 	   23.0000 	   32.0000 	   33.6908 
    1.2894 	   19.0600 	   23.0000 	   32.0000 	   33.7268 
    1.2589 	   19.0785 	   23.0000 	   32.0000 	   33.7638 
    1.3962 	   19.0965 	   23.0000 	   32.0000 	   33.7998 
    1.3504 	   19.1145 	   23.0000 	   32.0000 	   33.8358 
    1.4725 	   19.1330 	   23.0000 	   32.0000 	   33.8728 
    1.1521 	   19.1510 	   23.0000 	   32.0000 	   33.9088 
    1.3199 	   19.1695 	   23.0000 	   32.0000 	   33.9458 
    1.4572 	   19.1875 	   23.0000 	   32.0000 	   33.9818 
    1.3657 	   19.2060 	   23.0000 	   32.0000 	   34.0188 
    1.3504 	   19.2235 	   23.0000 	   32.0000 	   34.0538 
    1.3504 	   19.2425 	   23.0000 	   32.0000 	   34.0918 
    1.3199 	   19.2615 	   23.0000 	   32.0000 	   34.1298 
    1.1521 	   19.2800 	   23.0000 	   32.0000 	   34.1668 
    1.3504 	   19.2980 	   23.0000 	   32.0000 	   34.2028 
    1.4267 	   19.3155 	   23.0000 	   32.0000 	   34.2378 
    1.4725 	   19.3335 	   23.0000 	   32.0000 	   34.2738 
    1.5030 	   19.3515 	   23.0000 	   32.0000 	   34.3098 
    1.3199 	   19.3695 	   23.0000 	   32.0000 	   34.3458 
    1.4420 	   19.3875 	   23.0000 	   32.0000 	   34.3818 
    1.2589 	   19.4055 	   23.0000 	   32.0000 	   34.4178 
    1.3199 	   19.4245 	   23.0000 	   32.0000 	   34.4558 
    1.4878 	   19.4425 	   23.0000 	   32.0000 	   34.4918 
    1.2894 	   19.4605 	   23.0000 	   32.0000 	   34.5278 
    1.3504 	   19.4780 	   23.0000 	   32.0000 	   34.5628 
    1.5030 	   19.4955 	   23.0000 	   32.0000 	   34.5978 
    1.4115 	   19.5140 	   23.0000 	   32.0000 	   34.6348 
    1.3657 	   19.5320 	   23.0000 	   32.0000 	   34.6708 
    1.4572 	   19.5525 	   23.0000 	   32.0000 	   34.7118 
    1.4267 	   19.5695 	   23.0000 	   32.0000 	   34.7458 
    1.4115 	   19.5880 	   23.0000 	   32.0000 	   34.7829 
    1.4725 	   19.6055 	   23.0000 	   32.0000 	   34.8179 
    1.3809 	   19.6245 	   23.0000 	   32.0000 	   34.8559 
    1.3809 	   19.6425 	   23.0000 	   32.0000 	   34.8919 
    1.3809 	   19.6610 	   23.0000 	   32.0000 	   34.9289 
    1.4725 	   19.6790 	   23.0000 	   32.0000 	   34.9649 
    1.4725 	   19.6975 	   23.0000 	   32.0000 	   35.0019 
    1.5183 	   19.7155 	   23.0000 	   32.0000 	   35.0379 
    1.1978 	   19.7335 	   23.0000 	   32.0000 	   35.0739 
    1.4267 	   19.7510 	   23.0000 	   32.0000 	   35.1089 
    1.4878 	   19.7695 	   23.0000 	   32.0000 	   35.1459 
    1.4420 	   19.7875 	   23.0000 	   32.0000 	   35.1819 
    1.4725 	   19.8060 	   23.0000 	   32.0000 	   35.2189 
    1.5793 	   19.8235 	   23.0000 	   32.0000 	   35.2539 
    1.6709 	   19.8435 	   23.0000 	   32.0000 	   35.2939 
    1.3962 	   19.8610 	   23.0000 	   32.0000 	   35.3289 
    1.3962 	   19.8800 	   23.0000 	   32.0000 	   35.3669 
    1.5030 	   19.8975 	   23.0000 	   32.0000 	   35.4019 
    1.4115 	   19.9155 	   23.0000 	   32.0000 	   35.4379 
    1.4878 	   19.9330 	   23.0000 	   32.0000 	   35.4729 
    1.3504 	   19.9500 	   23.0000 	   32.0000 	   35.5069 
    1.3657 	   19.9695 	   23.0000 	   32.0000 	   35.5459 
    1.3809 	   19.9870 	   23.0000 	   32.0000 	   35.5809 
    1.5183 	   20.0045 	   23.0000 	   32.0000 	   35.6159 
    1.4725 	   20.0260 	   23.0000 	   32.0000 	   35.6589 
    1.4878 	   20.0480 	   23.0000 	   32.0000 	   35.7029 
    1.4420 	   20.0670 	   23.0000 	   32.0000 	   35.7409 
    1.3962 	   20.0840 	   23.0000 	   32.0000 	   35.7749 
    1.5640 	   20.1025 	   23.0000 	   32.0000 	   35.8119 
    1.4115 	   20.1210 	   23.0000 	   32.0000 	   35.8489 
    1.5488 	   20.1385 	   23.0000 	   32.0000 	   35.8839 
    1.3962 	   20.1575 	   23.0000 	   32.0000 	   35.9219 
    1.4115 	   20.1750 	   23.0000 	   32.0000 	   35.9569 
    1.4267 	   20.1925 	   23.0000 	   32.0000 	   35.9919 
    1.5640 	   20.2120 	   23.0000 	   32.0000 	   36.0309 
    1.4572 	   20.2300 	   23.0000 	   32.0000 	   36.0669 
    1.4725 	   20.2480 	   23.0000 	   32.0000 	   36.1029 
    1.5183 	   20.2665 	   23.0000 	   32.0000 	   36.1399 
    1.3962 	   20.2845 	   23.0000 	   32.0000 	   36.1759 
    1.4420 	   20.3010 	   23.0000 	   32.0000 	   36.2089 
    1.4115 	   20.3180 	   23.0000 	   32.0000 	   36.2429 
    1.6403 	   20.3365 	   23.0000 	   32.0000 	   36.2799 
    1.2436 	   20.3535 	   23.0000 	   32.0000 	   36.3139 
    1.3199 	   20.3720 	   23.0000 	   32.0000 	   36.3509 
    1.5183 	   20.3900 	   23.0000 	   32.0000 	   36.3869 
    1.4725 	   20.4085 	   23.0000 	   32.0000 	   36.4239 
    1.5488 	   20.4265 	   23.0000 	   32.0000 	   36.4599 
    1.4420 	   20.4455 	   23.0000 	   32.0000 	   36.4979 
    1.4572 	   20.4635 	   23.0000 	   32.0000 	   36.5340 
    1.4420 	   20.4810 	   23.0000 	   32.0000 	   36.5690 
    1.4725 	   20.5005 	   23.0000 	   32.0000 	   36.6080 
    1.4725 	   20.5185 	   23.0000 	   32.0000 	   36.6440 
    1.5488 	   20.5385 	   23.0000 	   32.0000 	   36.6840 
    1.4878 	   20.5560 	   23.0000 	   32.0000 	   36.7190 
    1.6098 	   20.5750 	   23.0000 	   32.0000 	   36.7570 
    1.4115 	   20.5925 	   23.0000 	   32.0000 	   36.7920 
    1.4420 	   20.6105 	   23.0000 	   32.0000 	   36.8280 
    1.5030 	   20.6295 	   23.0000 	   32.0000 	   36.8660 
    1.5030 	   20.6470 	   23.0000 	   32.0000 	   36.9010 
    1.6556 	   20.6650 	   23.0000 	   32.0000 	   36.9370 
    1.6556 	   20.6840 	   23.0000 	   32.0000 	   36.9750 
    1.5640 	   20.7020 	   23.0000 	   32.0000 	   37.0110 
    1.7166 	   20.7200 	   23.0000 	   32.0000 	   37.0470 
    1.5640 	   20.7375 	   23.0000 	   32.0000 	   37.0820 
    1.5488 	   20.7565 	   23.0000 	   32.0000 	   37.1200 
    1.5030 	   20.7745 	   23.0000 	   32.0000 	   37.1560 
    1.5488 	   20.7915 	   23.0000 	   32.0000 	   37.1900 
    1.5030 	   20.8090 	   23.0000 	   32.0000 	   37.2250 
    1.5640 	   20.8260 	   23.0000 	   32.0000 	   37.2590 
    1.6098 	   20.8435 	   23.0000 	   32.0000 	   37.2940 
    1.5030 	   20.8620 	   23.0000 	   32.0000 	   37.3310 
    1.4725 	   20.8785 	   23.0000 	   32.0000 	   37.3640 
    1.5946 	   20.8945 	   23.0000 	   32.0000 	   37.3960 
    1.7319 	   20.9105 	   23.0000 	   32.0000 	   37.4280 
    1.3809 	   20.9265 	   23.0000 	   32.0000 	   37.4600 
    1.4725 	   20.9425 	   23.0000 	   32.0000 	   37.4920 
    1.5183 	   20.9580 	   23.0000 	   32.0000 	   37.5230 
    1.5640 	   20.9740 	   23.0000 	   32.0000 	   37.5550 
    1.7166 	   20.9915 	   23.0000 	   32.0000 	   37.5900 
    1.4725 	   21.0085 	   23.0000 	   32.0000 	   37.6240 
    1.4878 	   21.0265 	   23.0000 	   32.0000 	   37.6600 
    1.4725 	   21.0460 	   23.0000 	   32.0000 	   37.6990 
    1.5030 	   21.0625 	   23.0000 	   32.0000 	   37.7320 
    1.6709 	   21.0785 	   23.0000 	   32.0000 	   37.7640 
    1.6403 	   21.0955 	   23.0000 	   32.0000 	   37.7980 
    1.5030 	   21.1135 	   23.0000 	   32.0000 	   37.8340 
    1.4878 	   21.1315 	   23.0000 	   32.0000 	   37.8700 
    1.4420 	   21.1495 	   23.0000 	   32.0000 	   37.9060 
    1.5030 	   21.1675 	   23.0000 	   32.0000 	   37.9420 
    1.5946 	   21.1845 	   23.0000 	   32.0000 	   37.9760 
    1.5183 	   21.2025 	   23.0000 	   32.0000 	   38.0120 
    1.5488 	   21.2205 	   23.0000 	   32.0000 	   38.0480 
    1.4115 	   21.2385 	   23.0000 	   32.0000 	   38.0840 
    1.6251 	   21.2565 	   23.0000 	   32.0000 	   38.1200 
    1.5488 	   21.2745 	   23.0000 	   32.0000 	   38.1560 
    1.5793 	   21.2935 	   23.0000 	   32.0000 	   38.1940 
    1.5793 	   21.3110 	   23.0000 	   32.0000 	   38.2290 
    1.5946 	   21.3285 	   23.0000 	   32.0000 	   38.2640 
    1.5946 	   21.3470 	   23.0000 	   32.0000 	   38.3011 
    1.6098 	   21.3660 	   23.0000 	   32.0000 	   38.3391 
    1.6403 	   21.3835 	   23.0000 	   32.0000 	   38.3741 
    1.5335 	   21.4015 	   23.0000 	   32.0000 	   38.4101 
    1.6861 	   21.4185 	   23.0000 	   32.0000 	   38.4441 
    1.5793 	   21.4365 	   23.0000 	   32.0000 	   38.4801 
    1.5335 	   21.4555 	   23.0000 	   32.0000 	   38.5181 
    1.5946 	   21.4730 	   23.0000 	   32.0000 	   38.5531 
    1.6861 	   21.4925 	   23.0000 	   32.0000 	   38.5921 
    1.6709 	   21.5100 	   23.0000 	   32.0000 	   38.6271 
    1.5793 	   21.5295 	   23.0000 	   32.0000 	   38.6661 
    1.5030 	   21.5490 	   23.0000 	   32.0000 	   38.7051 
    1.5946 	   21.5675 	   23.0000 	   32.0000 	   38.7421 
    1.5335 	   21.5860 	   23.0000 	   32.0000 	   38.7791 
    1.5488 	   21.6040 	   23.0000 	   32.0000 	   38.8151 
    1.6403 	   21.6220 	   23.0000 	   32.0000 	   38.8511 
    1.5335 	   21.6400 	   23.0000 	   32.0000 	   38.8871 
    1.4572 	   21.6590 	   23.0000 	   32.0000 	   38.9251 
    1.5030 	   21.6775 	   23.0000 	   32.0000 	   38.9621 
    1.5183 	   21.6960 	   23.0000 	   32.0000 	   38.9991 
    1.4115 	   21.7135 	   23.0000 	   32.0000 	   39.0341 
    1.5946 	   21.7320 	   23.0000 	   32.0000 	   39.0711 
    1.8692 	   21.7505 	   23.0000 	   32.0000 	   39.1081 
    1.5793 	   21.7680 	   23.0000 	   32.0000 	   39.1431 
    1.5030 	   21.7870 	   23.0000 	   32.0000 	   39.1811 
    1.5640 	   21.8055 	   23.0000 	   32.0000 	   39.2181 
    1.6251 	   21.8240 	   23.0000 	   32.0000 	   39.2551 
    1.5793 	   21.8420 	   23.0000 	   32.0000 	   39.2911 
    1.6861 	   21.8595 	   23.0000 	   32.0000 	   39.3261 
    1.6403 	   21.8770 	   23.0000 	   32.0000 	   39.3611 
    1.6098 	   21.8950 	   23.0000 	   32.0000 	   39.3971 
    1.6861 	   21.9130 	   23.0000 	   32.0000 	   39.4331 
    1.7929 	   21.9315 	   23.0000 	   32.0000 	   39.4701 
    1.8540 	   21.9505 	   23.0000 	   32.0000 	   39.5081 
    1.7624 	   21.9690 	   23.0000 	   32.0000 	   39.5451 
    1.7166 	   21.9875 	   23.0000 	   32.0000 	   39.5821 
    1.5640 	   22.0060 	   23.0000 	   32.0000 	   39.6191 
    1.6098 	   22.0255 	   23.0000 	   32.0000 	   39.6581 
    1.7014 	   22.0460 	   23.0000 	   32.0000 	   39.6991 
    1.6556 	   22.0640 	   23.0000 	   32.0000 	   39.7351 
    1.5030 	   22.0820 	   23.0000 	   32.0000 	   39.7711 
    1.6556 	   22.1015 	   23.0000 	   32.0000 	   39.8101 
    1.8235 	   22.1185 	   23.0000 	   32.0000 	   39.8441 
    1.6556 	   22.1365 	   23.0000 	   32.0000 	   39.8801 
    1.6556 	   22.1545 	   23.0000 	   32.0000 	   39.9151 
    1.6556 	   22.1725 	   23.0000 	   32.0000 	   39.9521 
    1.6709 	   22.1905 	   23.0000 	   32.0000 	   39.9881 
    1.6403 	   22.2090 	   23.0000 	   32.0000 	   40.0252 
    1.7014 	   22.2275 	   23.0000 	   32.0000 	   40.0622 
    1.7166 	   22.2460 	   23.0000 	   32.0000 	   40.0992 
    1.6098 	   22.2635 	   23.0000 	   32.0000 	   40.1342 
    1.7472 	   22.2815 	   23.0000 	   32.0000 	   40.1702 
    1.6251 	   22.3000 	   23.0000 	   32.0000 	   40.2072 
    1.6403 	   22.3190 	   23.0000 	   32.0000 	   40.2452 
    1.6251 	   22.3365 	   23.0000 	   32.0000 	   40.2802 
    1.5640 	   22.3555 	   23.0000 	   32.0000 	   40.3182 
    1.7319 	   22.3740 	   23.0000 	   32.0000 	   40.3552 
    1.6251 	   22.3915 	   23.0000 	   32.0000 	   40.3902 
    1.7624 	   22.4095 	   23.0000 	   32.0000 	   40.4262 
    1.5946 	   22.4275 	   23.0000 	   32.0000 	   40.4622 
    1.6709 	   22.4450 	   23.0000 	   32.0000 	   40.4972 
    1.6556 	   22.4635 	   23.0000 	   32.0000 	   40.5342 
    1.6251 	   22.4820 	   23.0000 	   32.0000 	   40.5712 
    1.6556 	   22.5005 	   23.0000 	   32.0000 	   40.6082 
    1.6709 	   22.5185 	   23.0000 	   32.0000 	   40.6442 
    1.8235 	   22.5400 	   23.0000 	   32.0000 	   40.6872 
    1.6556 	   22.5595 	   23.0000 	   32.0000 	   40.7262 
    1.6709 	   22.5775 	   23.0000 	   32.0000 	   40.7622 
    1.7777 	   22.5960 	   23.0000 	   32.0000 	   40.7992 
    1.8235 	   22.6135 	   23.0000 	   32.0000 	   40.8342 
    1.6556 	   22.6315 	   23.0000 	   32.0000 	   40.8692 
    1.7777 	   22.6510 	   23.0000 	   32.0000 	   40.9092 
    1.6098 	   22.6690 	   23.0000 	   32.0000 	   40.9452 
    1.8082 	   22.6880 	   23.0000 	   32.0000 	   40.9832 
    1.7166 	   22.7055 	   23.0000 	   32.0000 	   41.0182 
    1.8387 	   22.7235 	   23.0000 	   32.0000 	   41.0542 
    1.7472 	   22.7415 	   23.0000 	   32.0000 	   41.0902 
    1.7624 	   22.7590 	   23.0000 	   32.0000 	   41.1252 
    1.7014 	   22.7770 	   23.0000 	   32.0000 	   41.1612 
    1.7319 	   22.7960 	   23.0000 	   32.0000 	   41.1992 
    1.7014 	   22.8135 	   23.0000 	   32.0000 	   41.2342 
    1.8082 	   22.8315 	   23.0000 	   32.0000 	   41.2702 
    1.7929 	   22.8505 	   23.0000 	   32.0000 	   41.3082 
    1.7014 	   22.8695 	   23.0000 	   32.0000 	   41.3462 
    1.7166 	   22.8880 	   23.0000 	   32.0000 	   41.3832 
    1.6709 	   22.9060 	   23.0000 	   32.0000 	   41.4192 
    1.7472 	   22.9255 	   23.0000 	   32.0000 	   41.4582 
    1.6403 	   22.9440 	   23.0000 	   32.0000 	   41.4952 
    1.6861 	   22.9630 	   23.0000 	   32.0000 	   41.5332 
    1.6861 	   22.9810 	   23.0000 	   32.0000 	   41.5692 
    1.6556 	   23.0000 	   23.0000 	   32.0000 	   41.6062 
    1.6861 	   23.0260 	   23.0000 	   32.0000 	   41.6582 
    1.9150 	   23.0440 	   23.0000 	   32.0000 	   41.6942 
    1.8235 	   23.0620 	   23.0000 	   32.0000 	   41.7302 
    1.6251 	   23.0815 	   23.0000 	   32.0000 	   41.7692 
    1.5335 	   23.1005 	   23.0000 	   32.0000 	   41.8073 
    1.9455 	   23.1200 	   23.0000 	   32.0000 	   41.8463 
    1.7624 	   23.1380 	   23.0000 	   32.0000 	   41.8823 
    1.7777 	   23.1555 	   23.0000 	   32.0000 	   41.9173 
    1.7624 	   23.1740 	   23.0000 	   32.0000 	   41.9543 
    1.5183 	   23.1925 	   23.0000 	   32.0000 	   41.9913 
    1.8540 	   23.2105 	   23.0000 	   32.0000 	   42.0273 
    1.7929 	   23.2285 	   23.0000 	   32.0000 	   42.0633 
    1.8235 	   23.2470 	   23.0000 	   32.0000 	   42.1003 
    1.7166 	   23.2645 	   23.0000 	   32.0000 	   42.1353 
    1.8540 	   23.2835 	   23.0000 	   32.0000 	   42.1733 
    1.7624 	   23.3010 	   23.0000 	   32.0000 	   42.2083 
    1.8387 	   23.3185 	   23.0000 	   32.0000 	   42.2433 
    1.9608 	   23.3375 	   23.0000 	   32.0000 	   42.2813 
    1.8540 	   23.3555 	   23.0000 	   32.0000 	   42.3173 
    1.8235 	   23.3750 	   23.0000 	   32.0000 	   42.3563 
    1.8540 	   23.3935 	   23.0000 	   32.0000 	   42.3933 
    1.7624 	   23.4120 	   23.0000 	   32.0000 	   42.4303 
    1.7166 	   23.4310 	   23.0000 	   32.0000 	   42.4683 
    1.8082 	   23.4495 	   23.0000 	   32.0000 	   42.5053 
    1.7014 	   23.4680 	   23.0000 	   32.0000 	   42.5423 
    1.6861 	   23.4865 	   23.0000 	   32.0000 	   42.5793 
    1.7319 	   23.5055 	   23.0000 	   32.0000 	   42.6173 
    1.9608 	   23.5235 	   23.0000 	   32.0000 	   42.6533 
    1.8997 	   23.5440 	   23.0000 	   32.0000 	   42.6943 
    1.7777 	   23.5620 	   23.0000 	   32.0000 	   42.7303 
    1.8540 	   23.5805 	   23.0000 	   32.0000 	   42.7673 
    1.8997 	   23.5985 	   23.0000 	   32.0000 	   42.8033 
    2.0218 	   23.6175 	   23.0000 	   32.0000 	   42.8413 
    1.8387 	   23.6350 	   23.0000 	   32.0000 	   42.8763 
    1.9150 	   23.6540 	   23.0000 	   32.0000 	   42.9143 
    1.9455 	   23.6715 	   23.0000 	   32.0000 	   42.9493 
    1.8387 	   23.6885 	   23.0000 	   32.0000 	   42.9833 
    1.9760 	   23.7065 	   23.0000 	   32.0000 	   43.0193 
    1.8540 	   23.7240 	   23.0000 	   32.0000 	   43.0543 
    1.8082 	   23.7415 	   23.0000 	   32.0000 	   43.0893 
    1.9150 	   23.7590 	   23.0000 	   32.0000 	   43.1243 
    1.6251 	   23.7755 	   23.0000 	   32.0000 	   43.1573 
    1.7319 	   23.7925 	   23.0000 	   32.0000 	   43.1913 
    1.9913 	   23.8085 	   23.0000 	   32.0000 	   43.2233 
    1.7777 	   23.8250 	   23.0000 	   32.0000 	   43.2563 
    1.9150 	   23.8415 	   23.0000 	   32.0000 	   43.2893 
    2.0066 	   23.8585 	   23.0000 	   32.0000 	   43.3233 
    1.8540 	   23.8755 	   23.0000 	   32.0000 	   43.3573 
    1.8235 	   23.8925 	   23.0000 	   32.0000 	   43.3913 
    1.7777 	   23.9110 	   23.0000 	   32.0000 	   43.4283 
    1.7777 	   23.9290 	   23.0000 	   32.0000 	   43.4643 
    1.8082 	   23.9475 	   23.0000 	   32.0000 	   43.5014 
    1.8997 	   23.9655 	   23.0000 	   32.0000 	   43.5373 
    1.8082 	   23.9845 	   23.0000 	   32.0000 	   43.5754 
    1.9303 	   24.0025 	   23.0000 	   32.0000 	   43.6114 
    1.7472 	   24.0260 	   23.0000 	   32.0000 	   43.6584 
    1.8235 	   24.0465 	   23.0000 	   32.0000 	   43.6994 
    1.7624 	   24.0645 	   23.0000 	   32.0000 	   43.7354 
    1.5183 	   24.0825 	   23.0000 	   32.0000 	   43.7714 
    1.9150 	   24.1000 	   23.0000 	   32.0000 	   43.8064 
    1.8692 	   24.1185 	   23.0000 	   32.0000 	   43.8434 
    1.9150 	   24.1365 	   23.0000 	   32.0000 	   43.8794 
    1.8540 	   24.1560 	   23.0000 	   32.0000 	   43.9184 
    1.9455 	   24.1745 	   23.0000 	   32.0000 	   43.9554 
    1.8997 	   24.1935 	   23.0000 	   32.0000 	   43.9934 
    1.9913 	   24.2120 	   23.0000 	   32.0000 	   44.0304 
    1.7472 	   24.2305 	   23.0000 	   32.0000 	   44.0674 
    1.8692 	   24.2490 	   23.0000 	   32.0000 	   44.1044 
    2.0218 	   24.2665 	   23.0000 	   32.0000 	   44.1394 
    1.8082 	   24.2845 	   23.0000 	   32.0000 	   44.1754 
    1.8540 	   24.3020 	   23.0000 	   32.0000 	   44.2104 
    1.7319 	   24.3205 	   23.0000 	   32.0000 	   44.2474 
    1.8692 	   24.3395 	   23.0000 	   32.0000 	   44.2854 
    2.0523 	   24.3585 	   23.0000 	   32.0000 	   44.3234 
    1.8845 	   24.3765 	   23.0000 	   32.0000 	   44.3594 
    1.8997 	   24.3945 	   23.0000 	   32.0000 	   44.3954 
    1.8692 	   24.4140 	   23.0000 	   32.0000 	   44.4344 
    1.9760 	   24.4325 	   23.0000 	   32.0000 	   44.4714 
    1.9760 	   24.4505 	   23.0000 	   32.0000 	   44.5074 
    1.8540 	   24.4695 	   23.0000 	   32.0000 	   44.5454 
    1.5946 	   24.4880 	   23.0000 	   32.0000 	   44.5824 
    1.9913 	   24.5065 	   23.0000 	   32.0000 	   44.6194 
    1.9303 	   24.5255 	   23.0000 	   32.0000 	   44.6574 
    2.0218 	   24.5470 	   23.0000 	   32.0000 	   44.7004 
    1.8692 	   24.5655 	   23.0000 	   32.0000 	   44.7374 
    1.9303 	   24.5830 	   23.0000 	   32.0000 	   44.7724 
    1.8997 	   24.6020 	   23.0000 	   32.0000 	   44.8104 
    1.9303 	   24.6205 	   23.0000 	   32.0000 	   44.8474 
    1.9913 	   24.6395 	   23.0000 	   32.0000 	   44.8854 
    1.9303 	   24.6580 	   23.0000 	   32.0000 	   44.9224 
    1.9760 	   24.6765 	   23.0000 	   32.0000 	   44.9594 
    1.9760 	   24.6950 	   23.0000 	   32.0000 	   44.9964 
    1.9303 	   24.7130 	   23.0000 	   32.0000 	   45.0324 
    1.9760 	   24.7305 	   23.0000 	   32.0000 	   45.0674 
    1.9913 	   24.7485 	   23.0000 	   32.0000 	   45.1034 
    1.9303 	   24.7665 	   23.0000 	   32.0000 	   45.1394 
    1.8235 	   24.7830 	   23.0000 	   32.0000 	   45.1724 
    2.0981 	   24.7990 	   23.0000 	   32.0000 	   45.2044 
    1.8997 	   24.8155 	   23.0000 	   32.0000 	   45.2374 
    1.9303 	   24.8315 	   23.0000 	   32.0000 	   45.2695 
    2.0981 	   24.8480 	   23.0000 	   32.0000 	   45.3025 
    1.9303 	   24.8655 	   23.0000 	   32.0000 	   45.3375 
    2.1592 	   24.8815 	   23.0000 	   32.0000 	   45.3695 
    1.9303 	   24.8985 	   23.0000 	   32.0000 	   45.4035 
    1.8692 	   24.9185 	   23.0000 	   32.0000 	   45.4435 
    1.7777 	   24.9355 	   23.0000 	   32.0000 	   45.4775 
    2.0829 	   24.9535 	   23.0000 	   32.0000 	   45.5135 
    1.8387 	   24.9715 	   23.0000 	   32.0000 	   45.5495 
    2.0523 	   24.9890 	   23.0000 	   32.0000 	   45.5845 
    2.0676 	   25.0080 	   23.0000 	   32.0000 	   45.6225 
    2.0066 	   25.0270 	   23.0000 	   32.0000 	   45.6605 
    2.0066 	   25.0475 	   23.0000 	   32.0000 	   45.7015 
    2.0066 	   25.0655 	   23.0000 	   32.0000 	   45.7375 
    2.0371 	   25.0850 	   23.0000 	   32.0000 	   45.7765 
    2.0981 	   25.1025 	   23.0000 	   32.0000 	   45.8115 
    1.8540 	   25.1205 	   23.0000 	   32.0000 	   45.8475 
    2.0066 	   25.1395 	   23.0000 	   32.0000 	   45.8855 
    2.0829 	   25.1585 	   23.0000 	   32.0000 	   45.9235 
    2.0066 	   25.1765 	   23.0000 	   32.0000 	   45.9595 
    2.0829 	   25.1945 	   23.0000 	   32.0000 	   45.9955 
    2.0676 	   25.2130 	   23.0000 	   32.0000 	   46.0325 
    2.0066 	   25.2325 	   23.0000 	   32.0000 	   46.0715 
    2.0676 	   25.2505 	   23.0000 	   32.0000 	   46.1075 
    2.0523 	   25.2700 	   23.0000 	   32.0000 	   46.1465 
    2.0218 	   25.2875 	   23.0000 	   32.0000 	   46.1815 
    2.1286 	   25.3050 	   23.0000 	   32.0000 	   46.2165 
    2.0676 	   25.3230 	   23.0000 	   32.0000 	   46.2525 
    2.0676 	   25.3425 	   23.0000 	   32.0000 	   46.2915 
    1.9303 	   25.3610 	   23.0000 	   32.0000 	   46.3285 
    2.2049 	   25.3795 	   23.0000 	   32.0000 	   46.3655 
    2.0676 	   25.3970 	   23.0000 	   32.0000 	   46.4005 
    2.1439 	   25.4155 	   23.0000 	   32.0000 	   46.4375 
    1.7624 	   25.4320 	   23.0000 	   32.0000 	   46.4705 
    2.0218 	   25.4485 	   23.0000 	   32.0000 	   46.5035 
    2.0066 	   25.4650 	   23.0000 	   32.0000 	   46.5365 
    2.1134 	   25.4820 	   23.0000 	   32.0000 	   46.5705 
    2.0676 	   25.4980 	   23.0000 	   32.0000 	   46.6025 
    2.2812 	   25.5150 	   23.0000 	   32.0000 	   46.6365 
    2.0066 	   25.5320 	   23.0000 	   32.0000 	   46.6705 
    2.2049 	   25.5505 	   23.0000 	   32.0000 	   46.7075 
    2.0676 	   25.5670 	   23.0000 	   32.0000 	   46.7405 
    2.2049 	   25.5840 	   23.0000 	   32.0000 	   46.7745 
    2.1439 	   25.6010 	   23.0000 	   32.0000 	   46.8085 
    2.1744 	   25.6175 	   23.0000 	   32.0000 	   46.8415 
    2.0218 	   25.6360 	   23.0000 	   32.0000 	   46.8785 
    2.0676 	   25.6550 	   23.0000 	   32.0000 	   46.9165 
    2.0829 	   25.6745 	   23.0000 	   32.0000 	   46.9555 
    2.0981 	   25.6935 	   23.0000 	   32.0000 	   46.9935 
    2.0218 	   25.7135 	   23.0000 	   32.0000 	   47.0336 
    2.1439 	   25.7305 	   23.0000 	   32.0000 	   47.0676 
    2.2354 	   25.7480 	   23.0000 	   32.0000 	   47.1026 
    2.2049 	   25.7670 	   23.0000 	   32.0000 	   47.1406 
    2.1744 	   25.7860 	   23.0000 	   32.0000 	   47.1786 
    1.9150 	   25.8045 	   23.0000 	   32.0000 	   47.2156 
    2.3117 	   25.8225 	   23.0000 	   32.0000 	   47.2516 
    2.3880 	   25.8405 	   23.0000 	   32.0000 	   47.2876 
    2.1286 	   25.8600 	   23.0000 	   32.0000 	   47.3266 
    2.2965 	   25.8780 	   23.0000 	   32.0000 	   47.3626 
    2.0981 	   25.8965 	   23.0000 	   32.0000 	   47.3996 
    2.1134 	   25.9145 	   23.0000 	   32.0000 	   47.4356 
    2.0523 	   25.9330 	   23.0000 	   32.0000 	   47.4726 
    1.8997 	   25.9520 	   23.0000 	   32.0000 	   47.5106 
    2.0371 	   25.9710 	   23.0000 	   32.0000 	   47.5486 
    2.1744 	   25.9905 	   23.0000 	   32.0000 	   47.5876 
    2.2202 	   26.0090 	   23.0000 	   32.0000 	   47.6246 
    2.2049 	   26.0280 	   23.0000 	   32.0000 	   47.6626 
    2.1439 	   26.0475 	   23.0000 	   32.0000 	   47.7016 
    2.3117 	   26.0655 	   23.0000 	   32.0000 	   47.7376 
    2.0829 	   26.0830 	   23.0000 	   32.0000 	   47.7726 
    2.1744 	   26.1005 	   23.0000 	   32.0000 	   47.8076 
    2.0523 	   26.1200 	   23.0000 	   32.0000 	   47.8466 
    2.1286 	   26.1400 	   23.0000 	   32.0000 	   47.8866 
    2.1439 	   26.1580 	   23.0000 	   32.0000 	   47.9226 
    2.3575 	   26.1775 	   23.0000 	   32.0000 	   47.9616 
    2.1744 	   26.1965 	   23.0000 	   32.0000 	   47.9996 
    2.2202 	   26.2155 	   23.0000 	   32.0000 	   48.0376 
    2.1439 	   26.2345 	   23.0000 	   32.0000 	   48.0756 
    2.1134 	   26.2530 	   23.0000 	   32.0000 	   48.1126 
    2.1592 	   26.2720 	   23.0000 	   32.0000 	   48.1506 
    2.2354 	   26.2885 	   23.0000 	   32.0000 	   48.1836 
    2.3117 	   26.3075 	   23.0000 	   32.0000 	   48.2216 
    2.1439 	   26.3255 	   23.0000 	   32.0000 	   48.2576 
    2.0523 	   26.3435 	   23.0000 	   32.0000 	   48.2936 
    2.1134 	   26.3600 	   23.0000 	   32.0000 	   48.3266 
    2.3270 	   26.3765 	   23.0000 	   32.0000 	   48.3596 
    2.1897 	   26.3935 	   23.0000 	   32.0000 	   48.3936 
    2.2202 	   26.4110 	   23.0000 	   32.0000 	   48.4286 
    2.0066 	   26.4275 	   23.0000 	   32.0000 	   48.4616 
    2.3728 	   26.4445 	   23.0000 	   32.0000 	   48.4956 
    2.1744 	   26.4610 	   23.0000 	   32.0000 	   48.5286 
    2.1439 	   26.4780 	   23.0000 	   32.0000 	   48.5626 
    2.3728 	   26.4945 	   23.0000 	   32.0000 	   48.5956 
    2.0218 	   26.5110 	   23.0000 	   32.0000 	   48.6286 
    2.3270 	   26.5290 	   23.0000 	   32.0000 	   48.6646 
    2.1286 	   26.5490 	   23.0000 	   32.0000 	   48.7046 
    2.1439 	   26.5655 	   23.0000 	   32.0000 	   48.7376 
    2.1744 	   26.5820 	   23.0000 	   32.0000 	   48.7706 
    2.2202 	   26.5980 	   23.0000 	   32.0000 	   48.8027 
    2.1744 	   26.6160 	   23.0000 	   32.0000 	   48.8387 
    2.2660 	   26.6325 	   23.0000 	   32.0000 	   48.8717 
    2.1744 	   26.6490 	   23.0000 	   32.0000 	   48.9047 
    2.2507 	   26.6655 	   23.0000 	   32.0000 	   48.9377 
    2.2202 	   26.6825 	   23.0000 	   32.0000 	   48.9717 
    2.2202 	   26.6990 	   23.0000 	   32.0000 	   49.0047 
    2.1134 	   26.7155 	   23.0000 	   32.0000 	   49.0377 
    2.0829 	   26.7315 	   23.0000 	   32.0000 	   49.0697 
    2.0676 	   26.7480 	   23.0000 	   32.0000 	   49.1027 
    2.3423 	   26.7650 	   23.0000 	   32.0000 	   49.1367 
    2.3270 	   26.7825 	   23.0000 	   32.0000 	   49.1717 
    2.3117 	   26.7990 	   23.0000 	   32.0000 	   49.2047 
    2.3575 	   26.8155 	   23.0000 	   32.0000 	   49.2377 
    2.3880 	   26.8320 	   23.0000 	   32.0000 	   49.2707 
    2.3423 	   26.8490 	   23.0000 	   32.0000 	   49.3047 
    2.1134 	   26.8655 	   23.0000 	   32.0000 	   49.3377 
    2.3423 	   26.8815 	   23.0000 	   32.0000 	   49.3697 
    2.2202 	   26.8980 	   23.0000 	   32.0000 	   49.4027 
    2.2507 	   26.9155 	   23.0000 	   32.0000 	   49.4377 
    2.2354 	   26.9325 	   23.0000 	   32.0000 	   49.4717 
    2.2660 	   26.9485 	   23.0000 	   32.0000 	   49.5037 
    1.9760 	   26.9655 	   23.0000 	   32.0000 	   49.5377 
    2.4186 	   26.9820 	   23.0000 	   32.0000 	   49.5707 
    2.2660 	   26.9980 	   23.0000 	   32.0000 	   49.6027 
    2.4491 	   27.0260 	   23.0000 	   32.0000 	   49.6587 
    2.2507 	   27.0410 	   23.0000 	   32.0000 	   49.6887 
    2.3423 	   27.0595 	   23.0000 	   32.0000 	   49.7257 
    2.2812 	   27.0760 	   23.0000 	   32.0000 	   49.7587 
    2.4491 	   27.0925 	   23.0000 	   32.0000 	   49.7917 
    2.4186 	   27.1095 	   23.0000 	   32.0000 	   49.8257 
    2.3423 	   27.1260 	   23.0000 	   32.0000 	   49.8587 
    2.4491 	   27.1425 	   23.0000 	   32.0000 	   49.8917 
    2.3880 	   27.1590 	   23.0000 	   32.0000 	   49.9247 
    2.3423 	   27.1755 	   23.0000 	   32.0000 	   49.9577 
    2.3575 	   27.1920 	   23.0000 	   32.0000 	   49.9907 
    2.3270 	   27.2080 	   23.0000 	   32.0000 	   50.0227 
    2.4491 	   27.2245 	   23.0000 	   32.0000 	   50.0557 
    2.3575 	   27.2410 	   23.0000 	   32.0000 	   50.0887 
    2.3270 	   27.2585 	   23.0000 	   32.0000 	   50.1237 
    2.3423 	   27.2755 	   23.0000 	   32.0000 	   50.1577 
    2.5254 	   27.2920 	   23.0000 	   32.0000 	   50.1907 
    2.2660 	   27.3090 	   23.0000 	   32.0000 	   50.2247 
    2.2507 	   27.3270 	   23.0000 	   32.0000 	   50.2607 
    2.3423 	   27.3440 	   23.0000 	   32.0000 	   50.2947 
    2.2660 	   27.3605 	   23.0000 	   32.0000 	   50.3277 
    2.3117 	   27.3775 	   23.0000 	   32.0000 	   50.3617 
    2.2507 	   27.3940 	   23.0000 	   32.0000 	   50.3947 
    2.3880 	   27.4120 	   23.0000 	   32.0000 	   50.4307 
    2.5101 	   27.4295 	   23.0000 	   32.0000 	   50.4657 
    2.4491 	   27.4460 	   23.0000 	   32.0000 	   50.4987 
    2.3423 	   27.4635 	   23.0000 	   32.0000 	   50.5338 
    2.2965 	   27.4820 	   23.0000 	   32.0000 	   50.5708 
    2.4033 	   27.5010 	   23.0000 	   32.0000 	   50.6088 
    2.5254 	   27.5190 	   23.0000 	   32.0000 	   50.6448 
    2.3423 	   27.5400 	   23.0000 	   32.0000 	   50.6868 
    2.4033 	   27.5595 	   23.0000 	   32.0000 	   50.7258 
    2.1744 	   27.5780 	   23.0000 	   32.0000 	   50.7628 
    2.4186 	   27.5965 	   23.0000 	   32.0000 	   50.7998 
    2.4186 	   27.6140 	   23.0000 	   32.0000 	   50.8348 
    2.3728 	   27.6330 	   23.0000 	   32.0000 	   50.8728 
    2.2812 	   27.6510 	   23.0000 	   32.0000 	   50.9088 
    2.4491 	   27.6685 	   23.0000 	   32.0000 	   50.9438 
    2.5864 	   27.6875 	   23.0000 	   32.0000 	   50.9808 
    2.4338 	   27.7060 	   23.0000 	   32.0000 	   51.0188 
    2.3880 	   27.7245 	   23.0000 	   32.0000 	   51.0558 
    2.4491 	   27.7430 	   23.0000 	   32.0000 	   51.0928 
    2.5254 	   27.7600 	   23.0000 	   32.0000 	   51.1268 
    2.5101 	   27.7795 	   23.0000 	   32.0000 	   51.1658 
    2.5101 	   27.7965 	   23.0000 	   32.0000 	   51.1998 
    2.4033 	   27.8135 	   23.0000 	   32.0000 	   51.2338 
    2.3880 	   27.8325 	   23.0000 	   32.0000 	   51.2718 
    2.4033 	   27.8515 	   23.0000 	   32.0000 	   51.3098 
    2.4643 	   27.8690 	   23.0000 	   32.0000 	   51.3448 
    2.4491 	   27.8860 	   23.0000 	   32.0000 	   51.3788 
    2.4491 	   27.9030 	   23.0000 	   32.0000 	   51.4128 
    2.4948 	   27.9200 	   23.0000 	   32.0000 	   51.4468 
    2.4186 	   27.9365 	   23.0000 	   32.0000 	   51.4798 
    2.4491 	   27.9535 	   23.0000 	   32.0000 	   51.5138 
    2.4643 	   27.9700 	   23.0000 	   32.0000 	   51.5468 
    2.3880 	   27.9875 	   23.0000 	   32.0000 	   51.5818 
    2.4643 	   28.0040 	   23.0000 	   32.0000 	   51.6148 
    2.4491 	   28.0205 	   23.0000 	   32.0000 	   51.6478 
    2.4338 	   28.0395 	   23.0000 	   32.0000 	   51.6858 
    2.4643 	   28.0565 	   23.0000 	   32.0000 	   51.7198 
    2.4491 	   28.0730 	   23.0000 	   32.0000 	   51.7528 
    2.4796 	   28.0895 	   23.0000 	   32.0000 	   51.7858 
    2.4643 	   28.1065 	   23.0000 	   32.0000 	   51.8198 
    2.3880 	   28.1235 	   23.0000 	   32.0000 	   51.8538 
    2.6017 	   28.1405 	   23.0000 	   32.0000 	   51.8878 
    2.4033 	   28.1570 	   23.0000 	   32.0000 	   51.9208 
    2.4491 	   28.1750 	   23.0000 	   32.0000 	   51.9568 
    2.5101 	   28.1915 	   23.0000 	   32.0000 	   51.9898 
    2.4186 	   28.2075 	   23.0000 	   32.0000 	   52.0218 
    2.4948 	   28.2240 	   23.0000 	   32.0000 	   52.0548 
    2.4948 	   28.2405 	   23.0000 	   32.0000 	   52.0878 
    2.5406 	   28.2570 	   23.0000 	   32.0000 	   52.1208 
    2.6627 	   28.2740 	   23.0000 	   32.0000 	   52.1548 
    2.3575 	   28.2900 	   23.0000 	   32.0000 	   52.1868 
    2.5254 	   28.3065 	   23.0000 	   32.0000 	   52.2198 
    2.5101 	   28.3235 	   23.0000 	   32.0000 	   52.2538 
    2.6322 	   28.3395 	   23.0000 	   32.0000 	   52.2859 
    2.4948 	   28.3565 	   23.0000 	   32.0000 	   52.3189 
    2.4491 	   28.3735 	   23.0000 	   32.0000 	   52.3539 
    2.6169 	   28.3910 	   23.0000 	   32.0000 	   52.3889 
    2.5406 	   28.4085 	   23.0000 	   32.0000 	   52.4239 
    2.5254 	   28.4250 	   23.0000 	   32.0000 	   52.4569 
    2.4491 	   28.4420 	   23.0000 	   32.0000 	   52.4909 
    2.5254 	   28.4580 	   23.0000 	   32.0000 	   52.5229 
    2.6169 	   28.4750 	   23.0000 	   32.0000 	   52.5569 
    2.6322 	   28.4920 	   23.0000 	   32.0000 	   52.5909 
    2.4643 	   28.5085 	   23.0000 	   32.0000 	   52.6239 
    2.6627 	   28.5250 	   23.0000 	   32.0000 	   52.6569 
    2.3880 	   28.5435 	   23.0000 	   32.0000 	   52.6939 
    2.5711 	   28.5600 	   23.0000 	   32.0000 	   52.7269 
    2.4796 	   28.5765 	   23.0000 	   32.0000 	   52.7599 
    2.7085 	   28.5930 	   23.0000 	   32.0000 	   52.7929 
    2.5864 	   28.6095 	   23.0000 	   32.0000 	   52.8259 
    2.5711 	   28.6275 	   23.0000 	   32.0000 	   52.8619 
    2.6017 	   28.6445 	   23.0000 	   32.0000 	   52.8959 
    2.5406 	   28.6620 	   23.0000 	   32.0000 	   52.9309 
    2.6169 	   28.6785 	   23.0000 	   32.0000 	   52.9639 
    2.6169 	   28.6960 	   23.0000 	   32.0000 	   52.9989 
    2.5406 	   28.7125 	   23.0000 	   32.0000 	   53.0319 
    2.5406 	   28.7290 	   23.0000 	   32.0000 	   53.0649 
    2.6627 	   28.7460 	   23.0000 	   32.0000 	   53.0989 
    2.5559 	   28.7630 	   23.0000 	   32.0000 	   53.1329 
    2.6322 	   28.7795 	   23.0000 	   32.0000 	   53.1659 
    2.5559 	   28.7970 	   23.0000 	   32.0000 	   53.2009 
    2.6474 	   28.8160 	   23.0000 	   32.0000 	   53.2389 
    2.5864 	   28.8340 	   23.0000 	   32.0000 	   53.2749 
    2.5864 	   28.8530 	   23.0000 	   32.0000 	   53.3129 
    2.4643 	   28.8725 	   23.0000 	   32.0000 	   53.3519 
    2.6322 	   28.8920 	   23.0000 	   32.0000 	   53.3909 
    2.6474 	   28.9115 	   23.0000 	   32.0000 	   53.4299 
    2.7543 	   28.9295 	   23.0000 	   32.0000 	   53.4659 
    2.5406 	   28.9490 	   23.0000 	   32.0000 	   53.5049 
    2.5711 	   28.9675 	   23.0000 	   32.0000 	   53.5419 
    2.6627 	   28.9855 	   23.0000 	   32.0000 	   53.5779 
    2.6169 	   29.0055 	   23.0000 	   32.0000 	   53.6179 
    2.4491 	   29.0260 	   23.0000 	   32.0000 	   53.6589 
    2.6627 	   29.0475 	   23.0000 	   32.0000 	   53.7019 
    2.5406 	   29.0655 	   23.0000 	   32.0000 	   53.7379 
    2.7085 	   29.0840 	   23.0000 	   32.0000 	   53.7749 
    2.6322 	   29.1025 	   23.0000 	   32.0000 	   53.8119 
    2.7237 	   29.1210 	   23.0000 	   32.0000 	   53.8489 
    2.5254 	   29.1395 	   23.0000 	   32.0000 	   53.8859 
    2.8153 	   29.1585 	   23.0000 	   32.0000 	   53.9239 
    2.8000 	   29.1780 	   23.0000 	   32.0000 	   53.9629 
    2.6780 	   29.1985 	   23.0000 	   32.0000 	   54.0039 
    2.7695 	   29.2170 	   23.0000 	   32.0000 	   54.0410 
    2.6322 	   29.2360 	   23.0000 	   32.0000 	   54.0790 
    2.7695 	   29.2545 	   23.0000 	   32.0000 	   54.1160 
    2.5559 	   29.2730 	   23.0000 	   32.0000 	   54.1530 
    2.5864 	   29.2910 	   23.0000 	   32.0000 	   54.1890 
    2.7695 	   29.3095 	   23.0000 	   32.0000 	   54.2260 
    2.7848 	   29.3265 	   23.0000 	   32.0000 	   54.2600 
    2.6169 	   29.3430 	   23.0000 	   32.0000 	   54.2930 
    2.6169 	   29.3595 	   23.0000 	   32.0000 	   54.3260 
    2.8153 	   29.3760 	   23.0000 	   32.0000 	   54.3590 
    2.7390 	   29.3925 	   23.0000 	   32.0000 	   54.3920 
    2.7848 	   29.4095 	   23.0000 	   32.0000 	   54.4260 
    2.6780 	   29.4260 	   23.0000 	   32.0000 	   54.4590 
    2.6627 	   29.4425 	   23.0000 	   32.0000 	   54.4920 
    2.8000 	   29.4595 	   23.0000 	   32.0000 	   54.5260 
    2.4338 	   29.4765 	   23.0000 	   32.0000 	   54.5600 
    2.8000 	   29.4930 	   23.0000 	   32.0000 	   54.5930 
    2.7237 	   29.5100 	   23.0000 	   32.0000 	   54.6270 
    2.6322 	   29.5265 	   23.0000 	   32.0000 	   54.6600 
    2.5101 	   29.5430 	   23.0000 	   32.0000 	   54.6930 
    2.7695 	   29.5605 	   23.0000 	   32.0000 	   54.7280 
    2.7237 	   29.5785 	   23.0000 	   32.0000 	   54.7640 
    2.7085 	   29.5975 	   23.0000 	   32.0000 	   54.8020 
    2.7085 	   29.6160 	   23.0000 	   32.0000 	   54.8390 
    2.7085 	   29.6345 	   23.0000 	   32.0000 	   54.8760 
    2.7085 	   29.6530 	   23.0000 	   32.0000 	   54.9130 
    2.9068 	   29.6725 	   23.0000 	   32.0000 	   54.9520 
    2.7237 	   29.6910 	   23.0000 	   32.0000 	   54.9890 
    2.6932 	   29.7115 	   23.0000 	   32.0000 	   55.0300 
    2.5864 	   29.7310 	   23.0000 	   32.0000 	   55.0690 
    2.8458 	   29.7500 	   23.0000 	   32.0000 	   55.1070 
    2.7848 	   29.7685 	   23.0000 	   32.0000 	   55.1440 
    2.8153 	   29.7860 	   23.0000 	   32.0000 	   55.1790 
    2.7390 	   29.8055 	   23.0000 	   32.0000 	   55.2180 
    2.7848 	   29.8245 	   23.0000 	   32.0000 	   55.2560 
    2.5559 	   29.8425 	   23.0000 	   32.0000 	   55.2920 
    2.8153 	   29.8610 	   23.0000 	   32.0000 	   55.3290 
    2.7848 	   29.8790 	   23.0000 	   32.0000 	   55.3650 
    2.7695 	   29.8970 	   23.0000 	   32.0000 	   55.4010 
    2.8000 	   29.9145 	   23.0000 	   32.0000 	   55.4360 
    2.7390 	   29.9315 	   23.0000 	   32.0000 	   55.4690 
    2.8305 	   29.9485 	   23.0000 	   32.0000 	   55.5040 
    2.6932 	   29.9660 	   23.0000 	   32.0000 	   55.5390 
    2.8611 	   29.9825 	   23.0000 	   32.0000 	   55.5720 
    2.8000 	   29.9995 	   23.0000 	   32.0000 	   55.6060 
    2.7695 	   30.0170 	   23.0000 	   32.0000 	   55.6400 
    2.7695 	   30.0335 	   23.0000 	   32.0000 	   55.6740 
    2.8153 	   30.0520 	   23.0000 	   32.0000 	   55.7110 
    2.7695 	   30.0690 	   23.0000 	   32.0000 	   55.7450 
    2.9068 	   30.0855 	   23.0000 	   32.0000 	   55.7780 
    2.8916 	   30.1020 	   23.0000 	   32.0000 	   55.8111 
    2.8763 	   30.1190 	   23.0000 	   32.0000 	   55.8451 
    2.7543 	   30.1370 	   23.0000 	   32.0000 	   55.8811 
    2.9526 	   30.1550 	   23.0000 	   32.0000 	   55.9171 
    2.8153 	   30.1720 	   23.0000 	   32.0000 	   55.9511 
    2.7390 	   30.1890 	   23.0000 	   32.0000 	   55.9851 
    2.8153 	   30.2060 	   23.0000 	   32.0000 	   56.0191 
    2.9221 	   30.2230 	   23.0000 	   32.0000 	   56.0531 
    2.7085 	   30.2410 	   23.0000 	   32.0000 	   56.0891 
    2.9526 	   30.2575 	   23.0000 	   32.0000 	   56.1221 
    2.9831 	   30.2740 	   23.0000 	   32.0000 	   56.1551 
    2.8611 	   30.2910 	   23.0000 	   32.0000 	   56.1891 
    2.8305 	   30.3075 	   23.0000 	   32.0000 	   56.2221 
    2.8763 	   30.3250 	   23.0000 	   32.0000 	   56.2571 
    2.8916 	   30.3415 	   23.0000 	   32.0000 	   56.2901 
    2.8611 	   30.3585 	   23.0000 	   32.0000 	   56.3241 
    2.9526 	   30.3750 	   23.0000 	   32.0000 	   56.3571 
    2.9221 	   30.3920 	   23.0000 	   32.0000 	   56.3911 
    2.8611 	   30.4085 	   23.0000 	   32.0000 	   56.4241 
    2.9221 	   30.4255 	   23.0000 	   32.0000 	   56.4581 
    2.8916 	   30.4420 	   23.0000 	   32.0000 	   56.4911 
    3.0137 	   30.4590 	   23.0000 	   32.0000 	   56.5251 
    2.9831 	   30.4765 	   23.0000 	   32.0000 	   56.5601 
    2.9526 	   30.4945 	   23.0000 	   32.0000 	   56.5961 
    2.8000 	   30.5115 	   23.0000 	   32.0000 	   56.6301 
    2.8153 	   30.5280 	   23.0000 	   32.0000 	   56.6631 
    2.8611 	   30.5450 	   23.0000 	   32.0000 	   56.6971 
    2.8000 	   30.5620 	   23.0000 	   32.0000 	   56.7311 
    2.7237 	   30.5790 	   23.0000 	   32.0000 	   56.7651 
    3.0289 	   30.5955 	   23.0000 	   32.0000 	   56.7981 
    2.8611 	   30.6130 	   23.0000 	   32.0000 	   56.8331 
    2.6169 	   30.6310 	   23.0000 	   32.0000 	   56.8691 
    3.0289 	   30.6495 	   23.0000 	   32.0000 	   56.9061 
    2.9679 	   30.6660 	   23.0000 	   32.0000 	   56.9391 
    2.9374 	   30.6830 	   23.0000 	   32.0000 	   56.9731 
    2.9984 	   30.7000 	   23.0000 	   32.0000 	   57.0071 
    3.0594 	   30.7170 	   23.0000 	   32.0000 	   57.0411 
    2.9526 	   30.7355 	   23.0000 	   32.0000 	   57.0781 
    3.0289 	   30.7545 	   23.0000 	   32.0000 	   57.1161 
    2.8763 	   30.7740 	   23.0000 	   32.0000 	   57.1551 
    2.8916 	   30.7910 	   23.0000 	   32.0000 	   57.1891 
    2.9831 	   30.8085 	   23.0000 	   32.0000 	   57.2241 
    2.9374 	   30.8260 	   23.0000 	   32.0000 	   57.2591 
    2.7695 	   30.8460 	   23.0000 	   32.0000 	   57.2991 
    2.9374 	   30.8655 	   23.0000 	   32.0000 	   57.3381 
    3.0137 	   30.8840 	   23.0000 	   32.0000 	   57.3751 
    2.8763 	   30.9030 	   23.0000 	   32.0000 	   57.4131 
    2.9221 	   30.9225 	   23.0000 	   32.0000 	   57.4521 
    2.9526 	   30.9415 	   23.0000 	   32.0000 	   57.4902 
    2.8000 	   30.9605 	   23.0000 	   32.0000 	   57.5282 
    2.9526 	   30.9790 	   23.0000 	   32.0000 	   57.5652 
    3.0594 	   30.9970 	   23.0000 	   32.0000 	   57.6012 
    3.1662 	   31.0255 	   23.0000 	   32.0000 	   57.6582 
    2.8916 	   31.0415 	   23.0000 	   32.0000 	   57.6902 
    2.9831 	   31.0780 	   23.0000 	   32.0000 	   57.7632 
    2.9984 	   31.0955 	   23.0000 	   32.0000 	   57.7982 
    2.9984 	   31.1125 	   23.0000 	   32.0000 	   57.8322 
    3.0289 	   31.1315 	   23.0000 	   32.0000 	   57.8692 
    3.0594 	   31.1495 	   23.0000 	   32.0000 	   57.9062 
    2.9374 	   31.1680 	   23.0000 	   32.0000 	   57.9432 
    2.9984 	   31.1870 	   23.0000 	   32.0000 	   57.9812 
    2.9374 	   31.2055 	   23.0000 	   32.0000 	   58.0182 
    3.1052 	   31.2250 	   23.0000 	   32.0000 	   58.0572 
    3.1815 	   31.2445 	   23.0000 	   32.0000 	   58.0962 
    3.0747 	   31.2635 	   23.0000 	   32.0000 	   58.1342 
    3.0594 	   31.2830 	   23.0000 	   32.0000 	   58.1732 
    3.0289 	   31.3010 	   23.0000 	   32.0000 	   58.2092 
    3.2273 	   31.3205 	   23.0000 	   32.0000 	   58.2482 
    3.0442 	   31.3395 	   23.0000 	   32.0000 	   58.2862 
    3.0442 	   31.3610 	   23.0000 	   32.0000 	   58.3292 
    3.0747 	   31.3800 	   23.0000 	   32.0000 	   58.3672 
    3.0747 	   31.3990 	   23.0000 	   32.0000 	   58.4052 
    3.0594 	   31.4185 	   23.0000 	   32.0000 	   58.4442 
    3.1052 	   31.4370 	   23.0000 	   32.0000 	   58.4812 
    3.1052 	   31.4555 	   23.0000 	   32.0000 	   58.5182 
    2.9526 	   31.4750 	   23.0000 	   32.0000 	   58.5572 
    3.1357 	   31.4950 	   23.0000 	   32.0000 	   58.5972 
    2.9984 	   31.5140 	   23.0000 	   32.0000 	   58.6352 
    3.1968 	   31.5325 	   23.0000 	   32.0000 	   58.6722 
    3.1052 	   31.5520 	   23.0000 	   32.0000 	   58.7112 
    3.0594 	   31.5705 	   23.0000 	   32.0000 	   58.7482 
    3.1662 	   31.5890 	   23.0000 	   32.0000 	   58.7852 
    3.1968 	   31.6085 	   23.0000 	   32.0000 	   58.8242 
    3.1205 	   31.6275 	   23.0000 	   32.0000 	   58.8622 
    3.1052 	   31.6475 	   23.0000 	   32.0000 	   58.9022 
    3.0137 	   31.6670 	   23.0000 	   32.0000 	   58.9412 
    3.1357 	   31.6850 	   23.0000 	   32.0000 	   58.9772 
    3.0289 	   31.7040 	   23.0000 	   32.0000 	   59.0152 
    2.9374 	   31.7230 	   23.0000 	   32.0000 	   59.0532 
    2.9221 	   31.7425 	   23.0000 	   32.0000 	   59.0912 
    3.0747 	   31.7615 	   23.0000 	   32.0000 	   59.1292 
    3.1205 	   31.7800 	   23.0000 	   32.0000 	   59.1662 
    3.0594 	   31.7990 	   23.0000 	   32.0000 	   59.2042 
    3.1205 	   31.8180 	   23.0000 	   32.0000 	   59.2422 
    3.1815 	   31.8360 	   23.0000 	   32.0000 	   59.2783 
    3.1510 	   31.8530 	   23.0000 	   32.0000 	   59.3123 
    3.2120 	   31.8695 	   23.0000 	   32.0000 	   59.3453 
    3.1357 	   31.8865 	   23.0000 	   32.0000 	   59.3793 
    3.1662 	   31.9035 	   23.0000 	   32.0000 	   59.4133 
    3.1357 	   31.9210 	   23.0000 	   32.0000 	   59.4483 
    3.4257 	   31.9390 	   23.0000 	   32.0000 	   59.4843 
    3.1357 	   31.9560 	   23.0000 	   32.0000 	   59.5183 
    3.1968 	   31.9750 	   23.0000 	   32.0000 	   59.5563 
    3.0900 	   31.9925 	   23.0000 	   32.0000 	   59.5913 
    3.0900 	   32.0090 	   23.0000 	   32.0000 	   59.6243 
    3.1205 	   32.0260 	   23.0000 	   32.0000 	   59.6583 
    3.1968 	   32.0445 	   23.0000 	   32.0000 	   59.6953 
    3.0900 	   32.0620 	   23.0000 	   32.0000 	   59.7303 
    3.1357 	   32.0810 	   23.0000 	   32.0000 	   59.7683 
    3.1815 	   32.0990 	   23.0000 	   32.0000 	   59.8043 
    3.2120 	   32.1160 	   23.0000 	   32.0000 	   59.8383 
    3.1510 	   32.1325 	   23.0000 	   32.0000 	   59.8713 
    3.1815 	   32.1510 	   23.0000 	   32.0000 	   59.9073 
    3.1968 	   32.1695 	   23.0000 	   32.0000 	   59.9453 
    3.2578 	   32.1890 	   23.0000 	   32.0000 	   59.9843 
    3.2731 	   32.2080 	   23.0000 	   33.0000 	    0.0223 
    3.2731 	   32.2265 	   23.0000 	   33.0000 	    0.0593 
    3.1968 	   32.2465 	   23.0000 	   33.0000 	    0.0993 
    3.3188 	   32.2650 	   23.0000 	   33.0000 	    0.1363 
    3.0594 	   32.2835 	   23.0000 	   33.0000 	    0.1733 
    3.2731 	   32.3015 	   23.0000 	   33.0000 	    0.2093 
    3.2273 	   32.3200 	   23.0000 	   33.0000 	    0.2463 
    3.2273 	   32.3380 	   23.0000 	   33.0000 	    0.2813 
    3.1815 	   32.3545 	   23.0000 	   33.0000 	    0.3153 
    3.2731 	   32.3710 	   23.0000 	   33.0000 	    0.3483 
    3.1815 	   32.3880 	   23.0000 	   33.0000 	    0.3823 
    3.1052 	   32.4050 	   23.0000 	   33.0000 	    0.4163 
    3.1662 	   32.4220 	   23.0000 	   33.0000 	    0.4503 
    3.1357 	   32.4390 	   23.0000 	   33.0000 	    0.4843 
    3.3036 	   32.4560 	   23.0000 	   33.0000 	    0.5183 
    3.2731 	   32.4735 	   23.0000 	   33.0000 	    0.5533 
    3.2578 	   32.4960 	   23.0000 	   33.0000 	    0.5983 
    3.1968 	   32.5185 	   23.0000 	   33.0000 	    0.6433 
    3.3494 	   32.5345 	   23.0000 	   33.0000 	    0.6753 
    3.2425 	   32.5505 	   23.0000 	   33.0000 	    0.7073 
    3.2578 	   32.5680 	   23.0000 	   33.0000 	    0.7423 
    3.2883 	   32.5890 	   23.0000 	   33.0000 	    0.7843 
    3.2731 	   32.6085 	   23.0000 	   33.0000 	    0.8233 
    3.4714 	   32.6280 	   23.0000 	   33.0000 	    0.8623 
    3.4257 	   32.6475 	   23.0000 	   33.0000 	    0.9003 
    3.3799 	   32.6665 	   23.0000 	   33.0000 	    0.9393 
    3.3341 	   32.6860 	   23.0000 	   33.0000 	    0.9773 
    3.2731 	   32.7050 	   23.0000 	   33.0000 	    1.0164 
    3.2425 	   32.7245 	   23.0000 	   33.0000 	    1.0554 
    3.4562 	   32.7435 	   23.0000 	   33.0000 	    1.0934 
    3.3036 	   32.7625 	   23.0000 	   33.0000 	    1.1314 
    3.4104 	   32.7810 	   23.0000 	   33.0000 	    1.1684 
    3.3341 	   32.8015 	   23.0000 	   33.0000 	    1.2094 
    3.3036 	   32.8215 	   23.0000 	   33.0000 	    1.2494 
    3.2120 	   32.8400 	   23.0000 	   33.0000 	    1.2864 
    3.3951 	   32.8590 	   23.0000 	   33.0000 	    1.3244 
    3.2883 	   32.8780 	   23.0000 	   33.0000 	    1.3624 
    3.3494 	   32.8970 	   23.0000 	   33.0000 	    1.4004 
    3.3646 	   32.9165 	   23.0000 	   33.0000 	    1.4394 
    3.4257 	   32.9355 	   23.0000 	   33.0000 	    1.4774 
    3.2731 	   32.9545 	   23.0000 	   33.0000 	    1.5154 
    3.3036 	   32.9730 	   23.0000 	   33.0000 	    1.5524 
    3.4867 	   32.9915 	   23.0000 	   33.0000 	    1.5894 
    3.2883 	   33.0110 	   23.0000 	   33.0000 	    1.6284 
    3.3646 	   33.0300 	   23.0000 	   33.0000 	    1.6664 
    3.4257 	   33.0505 	   23.0000 	   33.0000 	    1.7074 
    3.3494 	   33.0700 	   23.0000 	   33.0000 	    1.7464 
    3.3341 	   33.0880 	   23.0000 	   33.0000 	    1.7824 
    3.0900 	   33.1065 	   23.0000 	   33.0000 	    1.8194 
    3.3341 	   33.1255 	   23.0000 	   33.0000 	    1.8574 
    3.4409 	   33.1440 	   23.0000 	   33.0000 	    1.8944 
    3.3341 	   33.1630 	   23.0000 	   33.0000 	    1.9324 
    3.4562 	   33.1805 	   23.0000 	   33.0000 	    1.9674 
    3.4257 	   33.1990 	   23.0000 	   33.0000 	    2.0044 
    3.4714 	   33.2175 	   23.0000 	   33.0000 	    2.0414 
    3.4257 	   33.2360 	   23.0000 	   33.0000 	    2.0784 
    3.3036 	   33.2545 	   23.0000 	   33.0000 	    2.1154 
    3.5325 	   33.2740 	   23.0000 	   33.0000 	    2.1544 
    3.4562 	   33.2930 	   23.0000 	   33.0000 	    2.1924 
    3.4867 	   33.3140 	   23.0000 	   33.0000 	    2.2344 
    3.4409 	   33.3330 	   23.0000 	   33.0000 	    2.2724 
    3.4104 	   33.3540 	   23.0000 	   33.0000 	    2.3144 
    3.4562 	   33.3725 	   23.0000 	   33.0000 	    2.3514 
    3.4104 	   33.3925 	   23.0000 	   33.0000 	    2.3914 
    3.4409 	   33.4110 	   23.0000 	   33.0000 	    2.4284 
    3.4867 	   33.4305 	   23.0000 	   33.0000 	    2.4674 
    3.5019 	   33.4490 	   23.0000 	   33.0000 	    2.5044 
    3.4257 	   33.4675 	   23.0000 	   33.0000 	    2.5414 
    3.4409 	   33.4870 	   23.0000 	   33.0000 	    2.5804 
    3.4257 	   33.5070 	   23.0000 	   33.0000 	    2.6204 
    3.3494 	   33.5255 	   23.0000 	   33.0000 	    2.6574 
    3.4409 	   33.5440 	   23.0000 	   33.0000 	    2.6944 
    3.4714 	   33.5630 	   23.0000 	   33.0000 	    2.7324 
    3.2120 	   33.5805 	   23.0000 	   33.0000 	    2.7675 
    3.4867 	   33.5995 	   23.0000 	   33.0000 	    2.8055 
    3.5325 	   33.6185 	   23.0000 	   33.0000 	    2.8435 
    3.5172 	   33.6370 	   23.0000 	   33.0000 	    2.8805 
    3.5172 	   33.6555 	   23.0000 	   33.0000 	    2.9175 
    3.4867 	   33.6750 	   23.0000 	   33.0000 	    2.9565 
    3.4409 	   33.6930 	   23.0000 	   33.0000 	    2.9925 
    3.4562 	   33.7100 	   23.0000 	   33.0000 	    3.0265 
    3.1052 	   33.7270 	   23.0000 	   33.0000 	    3.0605 
    3.4562 	   33.7440 	   23.0000 	   33.0000 	    3.0945 
    3.5782 	   33.7610 	   23.0000 	   33.0000 	    3.1285 
    3.6240 	   33.7785 	   23.0000 	   33.0000 	    3.1635 
    3.4867 	   33.7955 	   23.0000 	   33.0000 	    3.1975 
    3.5782 	   33.8140 	   23.0000 	   33.0000 	    3.2345 
    3.7919 	   33.8315 	   23.0000 	   33.0000 	    3.2695 
    3.5935 	   33.8490 	   23.0000 	   33.0000 	    3.3045 
    3.5935 	   33.8680 	   23.0000 	   33.0000 	    3.3425 
    3.6393 	   33.8850 	   23.0000 	   33.0000 	    3.3765 
    3.6088 	   33.9020 	   23.0000 	   33.0000 	    3.4105 
    3.5019 	   33.9190 	   23.0000 	   33.0000 	    3.4445 
    3.4562 	   33.9365 	   23.0000 	   33.0000 	    3.4795 
    3.5630 	   33.9560 	   23.0000 	   33.0000 	    3.5185 
    3.4867 	   33.9745 	   23.0000 	   33.0000 	    3.5555 
    3.5172 	   33.9950 	   23.0000 	   33.0000 	    3.5965 
    3.5782 	   34.0130 	   23.0000 	   33.0000 	    3.6325 
    3.4714 	   34.0315 	   23.0000 	   33.0000 	    3.6695 
    3.5630 	   34.0525 	   23.0000 	   33.0000 	    3.7115 
    3.6393 	   34.0695 	   23.0000 	   33.0000 	    3.7455 
    3.5325 	   34.0865 	   23.0000 	   33.0000 	    3.7795 
    3.5172 	   34.1035 	   23.0000 	   33.0000 	    3.8135 
    3.4714 	   34.1205 	   23.0000 	   33.0000 	    3.8475 
    3.6393 	   34.1385 	   23.0000 	   33.0000 	    3.8835 
    3.7613 	   34.1575 	   23.0000 	   33.0000 	    3.9215 
    3.6698 	   34.1765 	   23.0000 	   33.0000 	    3.9595 
    3.6545 	   34.1955 	   23.0000 	   33.0000 	    3.9975 
    3.6088 	   34.2145 	   23.0000 	   33.0000 	    4.0355 
    3.2731 	   34.2335 	   23.0000 	   33.0000 	    4.0735 
    3.6088 	   34.2525 	   23.0000 	   33.0000 	    4.1115 
    3.6088 	   34.2715 	   23.0000 	   33.0000 	    4.1495 
    3.5782 	   34.2895 	   23.0000 	   33.0000 	    4.1855 
    3.6240 	   34.3095 	   23.0000 	   33.0000 	    4.2255 
    3.6088 	   34.3290 	   23.0000 	   33.0000 	    4.2645 
    3.5630 	   34.3485 	   23.0000 	   33.0000 	    4.3035 
    3.7156 	   34.3685 	   23.0000 	   33.0000 	    4.3435 
    3.5325 	   34.3875 	   23.0000 	   33.0000 	    4.3815 
    3.5630 	   34.4060 	   23.0000 	   33.0000 	    4.4185 
    3.4409 	   34.4265 	   23.0000 	   33.0000 	    4.4595 
    3.5630 	   34.4460 	   23.0000 	   33.0000 	    4.4985 
    3.5630 	   34.4650 	   23.0000 	   33.0000 	    4.5366 
    3.6393 	   34.4855 	   23.0000 	   33.0000 	    4.5776 
    3.5935 	   34.5050 	   23.0000 	   33.0000 	    4.6166 
    3.6545 	   34.5255 	   23.0000 	   33.0000 	    4.6576 
    3.5782 	   34.5445 	   23.0000 	   33.0000 	    4.6956 
    3.6545 	   34.5645 	   23.0000 	   33.0000 	    4.7356 
    3.6393 	   34.5835 	   23.0000 	   33.0000 	    4.7736 
    3.7461 	   34.6015 	   23.0000 	   33.0000 	    4.8096 
    3.5935 	   34.6200 	   23.0000 	   33.0000 	    4.8466 
    3.7308 	   34.6395 	   23.0000 	   33.0000 	    4.8856 
    3.6851 	   34.6590 	   23.0000 	   33.0000 	    4.9246 
    3.8071 	   34.6770 	   23.0000 	   33.0000 	    4.9606 
    3.6088 	   34.6965 	   23.0000 	   33.0000 	    4.9996 
    3.7461 	   34.7165 	   23.0000 	   33.0000 	    5.0396 
    3.8987 	   34.7360 	   23.0000 	   33.0000 	    5.0786 
    3.7156 	   34.7555 	   23.0000 	   33.0000 	    5.1166 
    3.7461 	   34.7740 	   23.0000 	   33.0000 	    5.1546 
    3.6851 	   34.7930 	   23.0000 	   33.0000 	    5.1926 
    3.6545 	   34.8130 	   23.0000 	   33.0000 	    5.2326 
    3.7003 	   34.8315 	   23.0000 	   33.0000 	    5.2696 
    3.6088 	   34.8525 	   23.0000 	   33.0000 	    5.3116 
    3.7156 	   34.8720 	   23.0000 	   33.0000 	    5.3506 
    3.7156 	   34.8915 	   23.0000 	   33.0000 	    5.3896 
    3.7613 	   34.9105 	   23.0000 	   33.0000 	    5.4276 
    3.7003 	   34.9290 	   23.0000 	   33.0000 	    5.4646 
    3.5172 	   34.9485 	   23.0000 	   33.0000 	    5.5036 
    3.6393 	   34.9685 	   23.0000 	   33.0000 	    5.5436 
    3.6240 	   34.9885 	   23.0000 	   33.0000 	    5.5836 
    3.7308 	   35.0065 	   23.0000 	   33.0000 	    5.6196 
    3.7613 	   35.0275 	   23.0000 	   33.0000 	    5.6616 
    3.7919 	   35.0485 	   23.0000 	   33.0000 	    5.7026 
    3.4714 	   35.0695 	   23.0000 	   33.0000 	    5.7456 
    3.7003 	   35.0895 	   23.0000 	   33.0000 	    5.7856 
    3.7919 	   35.1090 	   23.0000 	   33.0000 	    5.8246 
    3.8834 	   35.1285 	   23.0000 	   33.0000 	    5.8636 
    3.8071 	   35.1470 	   23.0000 	   33.0000 	    5.9006 
    3.7919 	   35.1665 	   23.0000 	   33.0000 	    5.9396 
    3.7919 	   35.1860 	   23.0000 	   33.0000 	    5.9786 
    3.7613 	   35.2060 	   23.0000 	   33.0000 	    6.0186 
    3.7613 	   35.2265 	   23.0000 	   33.0000 	    6.0596 
    3.6698 	   35.2455 	   23.0000 	   33.0000 	    6.0976 
    3.9445 	   35.2645 	   23.0000 	   33.0000 	    6.1356 
    3.8529 	   35.2835 	   23.0000 	   33.0000 	    6.1736 
    3.8224 	   35.3040 	   23.0000 	   33.0000 	    6.2146 
    3.8224 	   35.3230 	   23.0000 	   33.0000 	    6.2527 
    3.8529 	   35.3435 	   23.0000 	   33.0000 	    6.2937 
    3.7919 	   35.3630 	   23.0000 	   33.0000 	    6.3327 
    3.8987 	   35.3830 	   23.0000 	   33.0000 	    6.3727 
    3.9139 	   35.4015 	   23.0000 	   33.0000 	    6.4097 
    3.8529 	   35.4215 	   23.0000 	   33.0000 	    6.4497 
    3.8224 	   35.4415 	   23.0000 	   33.0000 	    6.4897 
    3.9292 	   35.4605 	   23.0000 	   33.0000 	    6.5277 
    3.9292 	   35.4790 	   23.0000 	   33.0000 	    6.5647 
    3.8682 	   35.4975 	   23.0000 	   33.0000 	    6.6017 
    3.7156 	   35.5165 	   23.0000 	   33.0000 	    6.6397 
    3.9597 	   35.5360 	   23.0000 	   33.0000 	    6.6787 
    3.8529 	   35.5550 	   23.0000 	   33.0000 	    6.7167 
    3.8376 	   35.5745 	   23.0000 	   33.0000 	    6.7557 
    3.6393 	   35.5945 	   23.0000 	   33.0000 	    6.7957 
    3.9292 	   35.6135 	   23.0000 	   33.0000 	    6.8337 
    3.8529 	   35.6330 	   23.0000 	   33.0000 	    6.8727 
    3.9445 	   35.6520 	   23.0000 	   33.0000 	    6.9107 
    3.9445 	   35.6710 	   23.0000 	   33.0000 	    6.9487 
    3.8834 	   35.6900 	   23.0000 	   33.0000 	    6.9867 
    3.9139 	   35.7090 	   23.0000 	   33.0000 	    7.0247 
    3.8529 	   35.7280 	   23.0000 	   33.0000 	    7.0627 
    3.9139 	   35.7475 	   23.0000 	   33.0000 	    7.1017 
    3.8071 	   35.7675 	   23.0000 	   33.0000 	    7.1417 
    4.0055 	   35.7865 	   23.0000 	   33.0000 	    7.1797 
    3.8834 	   35.8045 	   23.0000 	   33.0000 	    7.2157 
    3.7766 	   35.8245 	   23.0000 	   33.0000 	    7.2557 
    3.9139 	   35.8440 	   23.0000 	   33.0000 	    7.2947 
    3.8071 	   35.8630 	   23.0000 	   33.0000 	    7.3327 
    3.9445 	   35.8825 	   23.0000 	   33.0000 	    7.3717 
    4.0665 	   35.9005 	   23.0000 	   33.0000 	    7.4077 
    4.0360 	   35.9175 	   23.0000 	   33.0000 	    7.4417 
    3.9750 	   35.9350 	   23.0000 	   33.0000 	    7.4767 
    3.7919 	   35.9520 	   23.0000 	   33.0000 	    7.5107 
    3.9902 	   35.9695 	   23.0000 	   33.0000 	    7.5457 
    3.9292 	   35.9865 	   23.0000 	   33.0000 	    7.5797 
    3.9445 	   36.0045 	   23.0000 	   33.0000 	    7.6157 
    3.9597 	   36.0260 	   23.0000 	   33.0000 	    7.6587 
    4.0665 	   36.0475 	   23.0000 	   33.0000 	    7.7017 
    3.9750 	   36.0670 	   23.0000 	   33.0000 	    7.7407 
    4.0818 	   36.0860 	   23.0000 	   33.0000 	    7.7787 
    3.9597 	   36.1040 	   23.0000 	   33.0000 	    7.8147 
    3.9750 	   36.1220 	   23.0000 	   33.0000 	    7.8507 
    4.0055 	   36.1400 	   23.0000 	   33.0000 	    7.8867 
    3.9445 	   36.1570 	   23.0000 	   33.0000 	    7.9207 
    3.9597 	   36.1755 	   23.0000 	   33.0000 	    7.9577 
    4.0360 	   36.1950 	   23.0000 	   33.0000 	    7.9967 
    4.0513 	   36.2135 	   23.0000 	   33.0000 	    8.0338 
    3.9597 	   36.2310 	   23.0000 	   33.0000 	    8.0688 
    3.9445 	   36.2490 	   23.0000 	   33.0000 	    8.1048 
    4.0055 	   36.2670 	   23.0000 	   33.0000 	    8.1408 
    3.9445 	   36.2860 	   23.0000 	   33.0000 	    8.1788 
    4.1276 	   36.3060 	   23.0000 	   33.0000 	    8.2188 
    4.2039 	   36.3270 	   23.0000 	   33.0000 	    8.2608 
    3.9139 	   36.3485 	   23.0000 	   33.0000 	    8.3038 
    4.0818 	   36.3690 	   23.0000 	   33.0000 	    8.3448 
    4.0818 	   36.3890 	   23.0000 	   33.0000 	    8.3848 
    4.1581 	   36.4080 	   23.0000 	   33.0000 	    8.4228 
    3.9750 	   36.4275 	   23.0000 	   33.0000 	    8.4618 
    4.0818 	   36.4470 	   23.0000 	   33.0000 	    8.5008 
    3.8682 	   36.4675 	   23.0000 	   33.0000 	    8.5418 
    4.1428 	   36.4865 	   23.0000 	   33.0000 	    8.5798 
    3.9750 	   36.5060 	   23.0000 	   33.0000 	    8.6188 
    4.0208 	   36.5260 	   23.0000 	   33.0000 	    8.6588 
    4.1581 	   36.5465 	   23.0000 	   33.0000 	    8.6998 
    3.9292 	   36.5665 	   23.0000 	   33.0000 	    8.7398 
    4.0970 	   36.5855 	   23.0000 	   33.0000 	    8.7778 
    4.0818 	   36.6055 	   23.0000 	   33.0000 	    8.8178 
    4.0818 	   36.6255 	   23.0000 	   33.0000 	    8.8578 
    4.1276 	   36.6450 	   23.0000 	   33.0000 	    8.8968 
    4.1733 	   36.6645 	   23.0000 	   33.0000 	    8.9358 
    4.1581 	   36.6840 	   23.0000 	   33.0000 	    8.9748 
    4.1581 	   36.7035 	   23.0000 	   33.0000 	    9.0138 
    4.1276 	   36.7220 	   23.0000 	   33.0000 	    9.0508 
    4.1733 	   36.7415 	   23.0000 	   33.0000 	    9.0898 
    4.2039 	   36.7610 	   23.0000 	   33.0000 	    9.1288 
    4.1428 	   36.7800 	   23.0000 	   33.0000 	    9.1668 
    4.2191 	   36.7995 	   23.0000 	   33.0000 	    9.2058 
    4.3107 	   36.8180 	   23.0000 	   33.0000 	    9.2428 
    4.0360 	   36.8380 	   23.0000 	   33.0000 	    9.2828 
    4.2344 	   36.8590 	   23.0000 	   33.0000 	    9.3248 
    4.2496 	   36.8775 	   23.0000 	   33.0000 	    9.3618 
    4.1123 	   36.8955 	   23.0000 	   33.0000 	    9.3978 
    4.0970 	   36.9125 	   23.0000 	   33.0000 	    9.4318 
    4.0513 	   36.9305 	   23.0000 	   33.0000 	    9.4678 
    4.2649 	   36.9495 	   23.0000 	   33.0000 	    9.5058 
    4.1886 	   36.9690 	   23.0000 	   33.0000 	    9.5448 
    4.1733 	   36.9880 	   23.0000 	   33.0000 	    9.5828 
    4.1581 	   37.0075 	   23.0000 	   33.0000 	    9.6218 
    4.1886 	   37.0270 	   23.0000 	   33.0000 	    9.6608 
    4.2039 	   37.0475 	   23.0000 	   33.0000 	    9.7018 
    4.2191 	   37.0670 	   23.0000 	   33.0000 	    9.7408 
    4.1581 	   37.0870 	   23.0000 	   33.0000 	    9.7809 
    4.2344 	   37.1060 	   23.0000 	   33.0000 	    9.8189 
    3.8987 	   37.1255 	   23.0000 	   33.0000 	    9.8579 
    4.1733 	   37.1440 	   23.0000 	   33.0000 	    9.8949 
    4.2649 	   37.1630 	   23.0000 	   33.0000 	    9.9329 
    4.1276 	   37.1830 	   23.0000 	   33.0000 	    9.9729 
    4.1886 	   37.2020 	   23.0000 	   33.0000 	   10.0109 
    4.2649 	   37.2215 	   23.0000 	   33.0000 	   10.0499 
    4.2344 	   37.2410 	   23.0000 	   33.0000 	   10.0889 
    4.2496 	   37.2615 	   23.0000 	   33.0000 	   10.1299 
    4.1581 	   37.2805 	   23.0000 	   33.0000 	   10.1679 
    4.2496 	   37.3005 	   23.0000 	   33.0000 	   10.2079 
    4.3259 	   37.3205 	   23.0000 	   33.0000 	   10.2479 
    4.2954 	   37.3395 	   23.0000 	   33.0000 	   10.2859 
    4.2344 	   37.3585 	   23.0000 	   33.0000 	   10.3239 
    4.1733 	   37.3790 	   23.0000 	   33.0000 	   10.3649 
    4.1886 	   37.3980 	   23.0000 	   33.0000 	   10.4029 
    4.2191 	   37.4170 	   23.0000 	   33.0000 	   10.4409 
    4.3259 	   37.4370 	   23.0000 	   33.0000 	   10.4809 
    4.1581 	   37.4565 	   23.0000 	   33.0000 	   10.5199 
    4.2344 	   37.4755 	   23.0000 	   33.0000 	   10.5579 
    4.3565 	   37.4955 	   23.0000 	   33.0000 	   10.5979 
    3.9750 	   37.5145 	   23.0000 	   33.0000 	   10.6359 
    4.2496 	   37.5355 	   23.0000 	   33.0000 	   10.6779 
    4.2039 	   37.5550 	   23.0000 	   33.0000 	   10.7169 
    4.1886 	   37.5735 	   23.0000 	   33.0000 	   10.7539 
    4.2802 	   37.5910 	   23.0000 	   33.0000 	   10.7889 
    4.2039 	   37.6085 	   23.0000 	   33.0000 	   10.8239 
    4.2802 	   37.6270 	   23.0000 	   33.0000 	   10.8609 
    4.2039 	   37.6450 	   23.0000 	   33.0000 	   10.8969 
    4.2191 	   37.6630 	   23.0000 	   33.0000 	   10.9329 
    4.1733 	   37.6805 	   23.0000 	   33.0000 	   10.9679 
    4.1733 	   37.6985 	   23.0000 	   33.0000 	   11.0039 
    4.2344 	   37.7160 	   23.0000 	   33.0000 	   11.0389 
    4.1886 	   37.7340 	   23.0000 	   33.0000 	   11.0749 
    4.0665 	   37.7520 	   23.0000 	   33.0000 	   11.1109 
    4.3259 	   37.7700 	   23.0000 	   33.0000 	   11.1469 
    4.2649 	   37.7875 	   23.0000 	   33.0000 	   11.1819 
    4.1581 	   37.8050 	   23.0000 	   33.0000 	   11.2169 
    4.2496 	   37.8225 	   23.0000 	   33.0000 	   11.2519 
    4.2802 	   37.8405 	   23.0000 	   33.0000 	   11.2879 
    4.3565 	   37.8575 	   23.0000 	   33.0000 	   11.3219 
    4.3717 	   37.8760 	   23.0000 	   33.0000 	   11.3589 
    4.4022 	   37.8940 	   23.0000 	   33.0000 	   11.3949 
    4.2802 	   37.9115 	   23.0000 	   33.0000 	   11.4299 
    4.2649 	   37.9330 	   23.0000 	   33.0000 	   11.4729 
    4.3259 	   37.9520 	   23.0000 	   33.0000 	   11.5110 
    4.3412 	   37.9710 	   23.0000 	   33.0000 	   11.5490 
    4.4480 	   37.9900 	   23.0000 	   33.0000 	   11.5870 
    4.2344 	   38.0080 	   23.0000 	   33.0000 	   11.6230 
    4.3259 	   38.0265 	   23.0000 	   33.0000 	   11.6600 
    4.3412 	   38.0455 	   23.0000 	   33.0000 	   11.6980 
    4.2802 	   38.0630 	   23.0000 	   33.0000 	   11.7330 
    4.3717 	   38.0815 	   23.0000 	   33.0000 	   11.7700 
    4.3107 	   38.0995 	   23.0000 	   33.0000 	   11.8060 
    4.2344 	   38.1190 	   23.0000 	   33.0000 	   11.8450 
    4.3565 	   38.1380 	   23.0000 	   33.0000 	   11.8830 
    4.3565 	   38.1565 	   23.0000 	   33.0000 	   11.9200 
    4.4327 	   38.1760 	   23.0000 	   33.0000 	   11.9590 
    4.4938 	   38.1950 	   23.0000 	   33.0000 	   11.9970 
    4.3565 	   38.2135 	   23.0000 	   33.0000 	   12.0340 
    4.4327 	   38.2310 	   23.0000 	   33.0000 	   12.0690 
    4.4022 	   38.2505 	   23.0000 	   33.0000 	   12.1080 
    4.4175 	   38.2695 	   23.0000 	   33.0000 	   12.1460 
    4.3107 	   38.2870 	   23.0000 	   33.0000 	   12.1810 
    4.3412 	   38.3050 	   23.0000 	   33.0000 	   12.2170 
    4.4327 	   38.3230 	   23.0000 	   33.0000 	   12.2530 
    4.5243 	   38.3410 	   23.0000 	   33.0000 	   12.2890 
    4.4480 	   38.3595 	   23.0000 	   33.0000 	   12.3260 
    4.4938 	   38.3795 	   23.0000 	   33.0000 	   12.3660 
    4.4938 	   38.3970 	   23.0000 	   33.0000 	   12.4010 
    4.3717 	   38.4150 	   23.0000 	   33.0000 	   12.4370 
    4.1886 	   38.4325 	   23.0000 	   33.0000 	   12.4720 
    4.4480 	   38.4505 	   23.0000 	   33.0000 	   12.5080 
    4.2802 	   38.4685 	   23.0000 	   33.0000 	   12.5440 
    4.4175 	   38.4860 	   23.0000 	   33.0000 	   12.5790 
    4.4480 	   38.5035 	   23.0000 	   33.0000 	   12.6140 
    4.1733 	   38.5215 	   23.0000 	   33.0000 	   12.6500 
    4.4327 	   38.5390 	   23.0000 	   33.0000 	   12.6850 
    4.3565 	   38.5575 	   23.0000 	   33.0000 	   12.7220 
    4.4785 	   38.5750 	   23.0000 	   33.0000 	   12.7570 
    4.5701 	   38.5930 	   23.0000 	   33.0000 	   12.7930 
    4.3259 	   38.6110 	   23.0000 	   33.0000 	   12.8290 
    4.4327 	   38.6290 	   23.0000 	   33.0000 	   12.8650 
    4.2191 	   38.6470 	   23.0000 	   33.0000 	   12.9010 
    4.4938 	   38.6645 	   23.0000 	   33.0000 	   12.9360 
    4.4785 	   38.6825 	   23.0000 	   33.0000 	   12.9720 
    4.3870 	   38.7000 	   23.0000 	   33.0000 	   13.0070 
    4.5853 	   38.7180 	   23.0000 	   33.0000 	   13.0430 
    4.2802 	   38.7360 	   23.0000 	   33.0000 	   13.0790 
    4.3870 	   38.7540 	   23.0000 	   33.0000 	   13.1150 
    4.4785 	   38.7720 	   23.0000 	   33.0000 	   13.1510 
    4.4633 	   38.7905 	   23.0000 	   33.0000 	   13.1880 
    4.5243 	   38.8095 	   23.0000 	   33.0000 	   13.2260 
    4.6006 	   38.8275 	   23.0000 	   33.0000 	   13.2621 
    4.5853 	   38.8460 	   23.0000 	   33.0000 	   13.2991 
    4.4633 	   38.8655 	   23.0000 	   33.0000 	   13.3381 
    4.5548 	   38.8835 	   23.0000 	   33.0000 	   13.3741 
    4.5243 	   38.9015 	   23.0000 	   33.0000 	   13.4101 
    4.4633 	   38.9200 	   23.0000 	   33.0000 	   13.4471 
    4.5853 	   38.9375 	   23.0000 	   33.0000 	   13.4821 
    4.5243 	   38.9555 	   23.0000 	   33.0000 	   13.5181 
    4.4633 	   38.9730 	   23.0000 	   33.0000 	   13.5531 
    4.3870 	   38.9900 	   23.0000 	   33.0000 	   13.5871 
    4.5243 	   39.0090 	   23.0000 	   33.0000 	   13.6251 
    4.3870 	   39.0265 	   23.0000 	   33.0000 	   13.6601 
    4.4022 	   39.0470 	   23.0000 	   33.0000 	   13.7011 
    4.6159 	   39.0665 	   23.0000 	   33.0000 	   13.7401 
    4.4633 	   39.0880 	   23.0000 	   33.0000 	   13.7831 
    4.6006 	   39.1070 	   23.0000 	   33.0000 	   13.8211 
    4.4633 	   39.1270 	   23.0000 	   33.0000 	   13.8611 
    4.6006 	   39.1440 	   23.0000 	   33.0000 	   13.8951 
    4.5090 	   39.1615 	   23.0000 	   33.0000 	   13.9301 
    4.5548 	   39.1785 	   23.0000 	   33.0000 	   13.9641 
    4.6921 	   39.1960 	   23.0000 	   33.0000 	   13.9991 
    4.6921 	   39.2140 	   23.0000 	   33.0000 	   14.0351 
    4.6159 	   39.2315 	   23.0000 	   33.0000 	   14.0701 
    4.4480 	   39.2485 	   23.0000 	   33.0000 	   14.1041 
    4.5090 	   39.2665 	   23.0000 	   33.0000 	   14.1401 
    4.6616 	   39.2835 	   23.0000 	   33.0000 	   14.1741 
    4.2954 	   39.3025 	   23.0000 	   33.0000 	   14.2121 
    4.6464 	   39.3205 	   23.0000 	   33.0000 	   14.2481 
    4.5853 	   39.3380 	   23.0000 	   33.0000 	   14.2831 
    4.5548 	   39.3555 	   23.0000 	   33.0000 	   14.3181 
    4.7074 	   39.3730 	   23.0000 	   33.0000 	   14.3531 
    4.6006 	   39.3905 	   23.0000 	   33.0000 	   14.3881 
    4.6616 	   39.4110 	   23.0000 	   33.0000 	   14.4291 
    4.7990 	   39.4300 	   23.0000 	   33.0000 	   14.4671 
    4.5701 	   39.4475 	   23.0000 	   33.0000 	   14.5021 
    4.5853 	   39.4655 	   23.0000 	   33.0000 	   14.5381 
    4.6616 	   39.4845 	   23.0000 	   33.0000 	   14.5761 
    4.6464 	   39.5045 	   23.0000 	   33.0000 	   14.6161 
    4.5701 	   39.5240 	   23.0000 	   33.0000 	   14.6551 
    4.6311 	   39.5445 	   23.0000 	   33.0000 	   14.6961 
    4.7379 	   39.5640 	   23.0000 	   33.0000 	   14.7351 
    4.6006 	   39.5870 	   23.0000 	   33.0000 	   14.7811 
    4.7227 	   39.6065 	   23.0000 	   33.0000 	   14.8201 
    4.6616 	   39.6255 	   23.0000 	   33.0000 	   14.8581 
    4.7379 	   39.6435 	   23.0000 	   33.0000 	   14.8941 
    4.7532 	   39.6615 	   23.0000 	   33.0000 	   14.9301 
    4.7990 	   39.6805 	   23.0000 	   33.0000 	   14.9681 
    4.7074 	   39.7015 	   23.0000 	   33.0000 	   15.0102 
    4.7684 	   39.7215 	   23.0000 	   33.0000 	   15.0502 
    4.7379 	   39.7410 	   23.0000 	   33.0000 	   15.0892 
    4.8905 	   39.7605 	   23.0000 	   33.0000 	   15.1282 
    4.6464 	   39.7805 	   23.0000 	   33.0000 	   15.1682 
    4.7990 	   39.8015 	   23.0000 	   33.0000 	   15.2102 
    4.6006 	   39.8225 	   23.0000 	   33.0000 	   15.2522 
    4.6921 	   39.8430 	   23.0000 	   33.0000 	   15.2932 
    4.7532 	   39.8635 	   23.0000 	   33.0000 	   15.3342 
    4.7074 	   39.8830 	   23.0000 	   33.0000 	   15.3732 
    4.7074 	   39.9025 	   23.0000 	   33.0000 	   15.4122 
    4.7532 	   39.9220 	   23.0000 	   33.0000 	   15.4512 
    4.7990 	   39.9420 	   23.0000 	   33.0000 	   15.4912 
    4.6616 	   39.9615 	   23.0000 	   33.0000 	   15.5302 
    4.7837 	   39.9805 	   23.0000 	   33.0000 	   15.5682 
    4.6921 	   40.0000 	   23.0000 	   33.0000 	   15.6072 
    4.6921 	   40.0255 	   23.0000 	   33.0000 	   15.6582 
    4.7074 	   40.0450 	   23.0000 	   33.0000 	   15.6972 
    4.7684 	   40.0660 	   23.0000 	   33.0000 	   15.7392 
    4.7379 	   40.0860 	   23.0000 	   33.0000 	   15.7792 
    4.8600 	   40.1055 	   23.0000 	   33.0000 	   15.8182 
    4.7684 	   40.1255 	   23.0000 	   33.0000 	   15.8582 
    4.7837 	   40.1455 	   23.0000 	   33.0000 	   15.8982 
    4.8905 	   40.1650 	   23.0000 	   33.0000 	   15.9372 
    4.7227 	   40.1845 	   23.0000 	   33.0000 	   15.9762 
    4.7532 	   40.2045 	   23.0000 	   33.0000 	   16.0162 
    4.8447 	   40.2240 	   23.0000 	   33.0000 	   16.0552 
    4.9363 	   40.2430 	   23.0000 	   33.0000 	   16.0932 
    4.8295 	   40.2630 	   23.0000 	   33.0000 	   16.1332 
    4.6921 	   40.2845 	   23.0000 	   33.0000 	   16.1762 
    4.8295 	   40.3040 	   23.0000 	   33.0000 	   16.2152 
    4.8142 	   40.3235 	   23.0000 	   33.0000 	   16.2542 
    4.7684 	   40.3435 	   23.0000 	   33.0000 	   16.2942 
    4.8600 	   40.3635 	   23.0000 	   33.0000 	   16.3342 
    4.7990 	   40.3830 	   23.0000 	   33.0000 	   16.3732 
    4.8753 	   40.4025 	   23.0000 	   33.0000 	   16.4122 
    4.8295 	   40.4215 	   23.0000 	   33.0000 	   16.4502 
    4.6616 	   40.4410 	   23.0000 	   33.0000 	   16.4892 
    4.8905 	   40.4605 	   23.0000 	   33.0000 	   16.5282 
    4.9058 	   40.4815 	   23.0000 	   33.0000 	   16.5692 
    4.8295 	   40.5020 	   23.0000 	   33.0000 	   16.6102 
    4.9363 	   40.5215 	   23.0000 	   33.0000 	   16.6492 
    4.7074 	   40.5415 	   23.0000 	   33.0000 	   16.6892 
    4.8905 	   40.5610 	   23.0000 	   33.0000 	   16.7282 
    4.7990 	   40.5810 	   23.0000 	   33.0000 	   16.7683 
    4.8753 	   40.6015 	   23.0000 	   33.0000 	   16.8093 
    4.8905 	   40.6220 	   23.0000 	   33.0000 	   16.8503 
    4.8600 	   40.6415 	   23.0000 	   33.0000 	   16.8893 
    4.7837 	   40.6615 	   23.0000 	   33.0000 	   16.9293 
    4.8905 	   40.6805 	   23.0000 	   33.0000 	   16.9673 
    4.9058 	   40.7005 	   23.0000 	   33.0000 	   17.0073 
    4.8447 	   40.7205 	   23.0000 	   33.0000 	   17.0473 
    4.7684 	   40.7390 	   23.0000 	   33.0000 	   17.0843 
    4.7684 	   40.7600 	   23.0000 	   33.0000 	   17.1263 
    5.0126 	   40.7805 	   23.0000 	   33.0000 	   17.1673 
    4.9363 	   40.8005 	   23.0000 	   33.0000 	   17.2073 
    4.8295 	   40.8235 	   23.0000 	   33.0000 	   17.2533 
    4.8753 	   40.8440 	   23.0000 	   33.0000 	   17.2943 
    4.9363 	   40.8640 	   23.0000 	   33.0000 	   17.3343 
    4.8447 	   40.8835 	   23.0000 	   33.0000 	   17.3733 
    4.9821 	   40.9035 	   23.0000 	   33.0000 	   17.4133 
    4.7074 	   40.9235 	   23.0000 	   33.0000 	   17.4533 
    5.0584 	   40.9430 	   23.0000 	   33.0000 	   17.4923 
    4.8905 	   40.9625 	   23.0000 	   33.0000 	   17.5313 
    5.1041 	   40.9815 	   23.0000 	   33.0000 	   17.5693 
    4.9821 	   41.0020 	   23.0000 	   33.0000 	   17.6103 
    4.9058 	   41.0245 	   23.0000 	   33.0000 	   17.6553 
    5.0431 	   41.0460 	   23.0000 	   33.0000 	   17.6983 
    5.1041 	   41.0650 	   23.0000 	   33.0000 	   17.7363 
    4.9363 	   41.0850 	   23.0000 	   33.0000 	   17.7763 
    4.7837 	   41.1050 	   23.0000 	   33.0000 	   17.8163 
    4.9363 	   41.1230 	   23.0000 	   33.0000 	   17.8523 
    4.9210 	   41.1405 	   23.0000 	   33.0000 	   17.8873 
    5.0584 	   41.1580 	   23.0000 	   33.0000 	   17.9223 
    4.9363 	   41.1755 	   23.0000 	   33.0000 	   17.9573 
    4.9516 	   41.1930 	   23.0000 	   33.0000 	   17.9923 
    5.0126 	   41.2120 	   23.0000 	   33.0000 	   18.0303 
    4.9516 	   41.2320 	   23.0000 	   33.0000 	   18.0703 
    4.8447 	   41.2515 	   23.0000 	   33.0000 	   18.1093 
    4.9210 	   41.2700 	   23.0000 	   33.0000 	   18.1463 
    5.0889 	   41.2890 	   23.0000 	   33.0000 	   18.1843 
    5.0584 	   41.3095 	   23.0000 	   33.0000 	   18.2253 
    5.1041 	   41.3295 	   23.0000 	   33.0000 	   18.2653 
    4.8905 	   41.3485 	   23.0000 	   33.0000 	   18.3033 
    5.0431 	   41.3680 	   23.0000 	   33.0000 	   18.3423 
    4.9363 	   41.3885 	   23.0000 	   33.0000 	   18.3833 
    4.9973 	   41.4095 	   23.0000 	   33.0000 	   18.4253 
    4.9363 	   41.4290 	   23.0000 	   33.0000 	   18.4643 
    5.0126 	   41.4485 	   23.0000 	   33.0000 	   18.5034 
    4.9210 	   41.4685 	   23.0000 	   33.0000 	   18.5434 
    5.0126 	   41.4885 	   23.0000 	   33.0000 	   18.5834 
    5.0278 	   41.5085 	   23.0000 	   33.0000 	   18.6234 
    4.9363 	   41.5280 	   23.0000 	   33.0000 	   18.6624 
    5.0278 	   41.5480 	   23.0000 	   33.0000 	   18.7024 
    4.9058 	   41.5680 	   23.0000 	   33.0000 	   18.7424 
    4.9821 	   41.5890 	   23.0000 	   33.0000 	   18.7844 
    4.9363 	   41.6090 	   23.0000 	   33.0000 	   18.8244 
    4.9973 	   41.6290 	   23.0000 	   33.0000 	   18.8644 
    5.0278 	   41.6490 	   23.0000 	   33.0000 	   18.9044 
    4.9821 	   41.6680 	   23.0000 	   33.0000 	   18.9424 
    5.0278 	   41.6880 	   23.0000 	   33.0000 	   18.9824 
    4.9973 	   41.7070 	   23.0000 	   33.0000 	   19.0204 
    5.1194 	   41.7270 	   23.0000 	   33.0000 	   19.0604 
    4.9210 	   41.7470 	   23.0000 	   33.0000 	   19.1004 
    5.0584 	   41.7675 	   23.0000 	   33.0000 	   19.1414 
    5.1804 	   41.7860 	   23.0000 	   33.0000 	   19.1784 
    5.1957 	   41.8070 	   23.0000 	   33.0000 	   19.2204 
    5.1957 	   41.8265 	   23.0000 	   33.0000 	   19.2594 
    5.1652 	   41.8460 	   23.0000 	   33.0000 	   19.2984 
    4.8905 	   41.8655 	   23.0000 	   33.0000 	   19.3374 
    5.0278 	   41.8860 	   23.0000 	   33.0000 	   19.3784 
    5.0126 	   41.9060 	   23.0000 	   33.0000 	   19.4184 
    5.1499 	   41.9250 	   23.0000 	   33.0000 	   19.4564 
    5.1347 	   41.9445 	   23.0000 	   33.0000 	   19.4954 
    5.1041 	   41.9645 	   23.0000 	   33.0000 	   19.5354 
    5.0584 	   41.9845 	   23.0000 	   33.0000 	   19.5754 
    4.9516 	   42.0025 	   23.0000 	   33.0000 	   19.6114 
    4.9668 	   42.0205 	   23.0000 	   33.0000 	   19.6474 
    5.0736 	   42.0400 	   23.0000 	   33.0000 	   19.6864 
    5.1957 	   42.0575 	   23.0000 	   33.0000 	   19.7214 
    5.1194 	   42.0755 	   23.0000 	   33.0000 	   19.7574 
    5.1347 	   42.0935 	   23.0000 	   33.0000 	   19.7934 
    5.1652 	   42.1115 	   23.0000 	   33.0000 	   19.8294 
    5.2415 	   42.1300 	   23.0000 	   33.0000 	   19.8664 
    5.0126 	   42.1490 	   23.0000 	   33.0000 	   19.9044 
    5.0736 	   42.1690 	   23.0000 	   33.0000 	   19.9444 
    5.2110 	   42.1865 	   23.0000 	   33.0000 	   19.9794 
    5.1347 	   42.2055 	   23.0000 	   33.0000 	   20.0174 
    5.1652 	   42.2245 	   23.0000 	   33.0000 	   20.0554 
    5.2720 	   42.2425 	   23.0000 	   33.0000 	   20.0914 
    5.2873 	   42.2600 	   23.0000 	   33.0000 	   20.1264 
    5.2720 	   42.2780 	   23.0000 	   33.0000 	   20.1624 
    5.0584 	   42.2975 	   23.0000 	   33.0000 	   20.2014 
    5.1957 	   42.3185 	   23.0000 	   33.0000 	   20.2435 
    4.9210 	   42.3385 	   23.0000 	   33.0000 	   20.2835 
    5.0736 	   42.3580 	   23.0000 	   33.0000 	   20.3225 
    5.1804 	   42.3785 	   23.0000 	   33.0000 	   20.3635 
    5.2262 	   42.3980 	   23.0000 	   33.0000 	   20.4025 
    5.1347 	   42.4185 	   23.0000 	   33.0000 	   20.4435 
    5.0736 	   42.4375 	   23.0000 	   33.0000 	   20.4815 
    5.0889 	   42.4575 	   23.0000 	   33.0000 	   20.5215 
    5.1957 	   42.4780 	   23.0000 	   33.0000 	   20.5625 
    5.2262 	   42.4980 	   23.0000 	   33.0000 	   20.6025 
    5.3941 	   42.5180 	   23.0000 	   33.0000 	   20.6425 
    5.1194 	   42.5390 	   23.0000 	   33.0000 	   20.6845 
    5.1499 	   42.5610 	   23.0000 	   33.0000 	   20.7285 
    5.2262 	   42.5810 	   23.0000 	   33.0000 	   20.7685 
    5.1194 	   42.6010 	   23.0000 	   33.0000 	   20.8085 
    5.1957 	   42.6210 	   23.0000 	   33.0000 	   20.8485 
    5.3025 	   42.6410 	   23.0000 	   33.0000 	   20.8885 
    5.1804 	   42.6620 	   23.0000 	   33.0000 	   20.9305 
    5.0278 	   42.6825 	   23.0000 	   33.0000 	   20.9715 
    5.3635 	   42.7025 	   23.0000 	   33.0000 	   21.0115 
    5.0584 	   42.7235 	   23.0000 	   33.0000 	   21.0535 
    5.3025 	   42.7405 	   23.0000 	   33.0000 	   21.0875 
    5.1652 	   42.7580 	   23.0000 	   33.0000 	   21.1225 
    5.2720 	   42.7760 	   23.0000 	   33.0000 	   21.1585 
    5.0889 	   42.7940 	   23.0000 	   33.0000 	   21.1945 
    5.0736 	   42.8120 	   23.0000 	   33.0000 	   21.2305 
    5.3941 	   42.8305 	   23.0000 	   33.0000 	   21.2675 
    5.3330 	   42.8485 	   23.0000 	   33.0000 	   21.3035 
    5.2873 	   42.8665 	   23.0000 	   33.0000 	   21.3395 
    5.2873 	   42.8845 	   23.0000 	   33.0000 	   21.3755 
    5.3941 	   42.9035 	   23.0000 	   33.0000 	   21.4135 
    5.2262 	   42.9235 	   23.0000 	   33.0000 	   21.4535 
    5.3330 	   42.9440 	   23.0000 	   33.0000 	   21.4945 
    5.2873 	   42.9640 	   23.0000 	   33.0000 	   21.5345 
    5.3483 	   42.9845 	   23.0000 	   33.0000 	   21.5755 
    5.2262 	   43.0045 	   23.0000 	   33.0000 	   21.6155 
    5.2415 	   43.0230 	   23.0000 	   33.0000 	   21.6525 
    5.4246 	   43.0455 	   23.0000 	   33.0000 	   21.6975 
    5.3178 	   43.0645 	   23.0000 	   33.0000 	   21.7355 
    5.2567 	   43.0880 	   23.0000 	   33.0000 	   21.7825 
    5.3483 	   43.1085 	   23.0000 	   33.0000 	   21.8235 
    5.3330 	   43.1280 	   23.0000 	   33.0000 	   21.8625 
    5.3635 	   43.1480 	   23.0000 	   33.0000 	   21.9025 
    5.4398 	   43.1695 	   23.0000 	   33.0000 	   21.9455 
    5.2262 	   43.1900 	   23.0000 	   33.0000 	   21.9865 
    5.3788 	   43.2105 	   23.0000 	   33.0000 	   22.0276 
    5.4704 	   43.2300 	   23.0000 	   33.0000 	   22.0666 
    5.6687 	   43.2500 	   23.0000 	   33.0000 	   22.1066 
    5.4398 	   43.2710 	   23.0000 	   33.0000 	   22.1486 
    5.4398 	   43.2935 	   23.0000 	   33.0000 	   22.1936 
    5.1804 	   43.3140 	   23.0000 	   33.0000 	   22.2346 
    5.4551 	   43.3330 	   23.0000 	   33.0000 	   22.2726 
    5.4246 	   43.3530 	   23.0000 	   33.0000 	   22.3126 
    5.4704 	   43.3735 	   23.0000 	   33.0000 	   22.3536 
    5.3178 	   43.3930 	   23.0000 	   33.0000 	   22.3926 
    5.2567 	   43.4130 	   23.0000 	   33.0000 	   22.4326 
    5.0736 	   43.4325 	   23.0000 	   33.0000 	   22.4716 
    5.4246 	   43.4515 	   23.0000 	   33.0000 	   22.5096 
    5.3178 	   43.4710 	   23.0000 	   33.0000 	   22.5486 
    5.3025 	   43.4900 	   23.0000 	   33.0000 	   22.5866 
    5.4856 	   43.5105 	   23.0000 	   33.0000 	   22.6276 
    5.4246 	   43.5295 	   23.0000 	   33.0000 	   22.6656 
    5.3941 	   43.5495 	   23.0000 	   33.0000 	   22.7056 
    5.4246 	   43.5710 	   23.0000 	   33.0000 	   22.7486 
    5.3178 	   43.5900 	   23.0000 	   33.0000 	   22.7866 
    5.4704 	   43.6105 	   23.0000 	   33.0000 	   22.8276 
    5.4093 	   43.6300 	   23.0000 	   33.0000 	   22.8666 
    5.4551 	   43.6505 	   23.0000 	   33.0000 	   22.9076 
    5.4551 	   43.6705 	   23.0000 	   33.0000 	   22.9476 
    5.6077 	   43.6900 	   23.0000 	   33.0000 	   22.9866 
    5.4704 	   43.7095 	   23.0000 	   33.0000 	   23.0256 
    5.4551 	   43.7285 	   23.0000 	   33.0000 	   23.0636 
    5.3483 	   43.7480 	   23.0000 	   33.0000 	   23.1026 
    5.2110 	   43.7690 	   23.0000 	   33.0000 	   23.1446 
    5.5314 	   43.7880 	   23.0000 	   33.0000 	   23.1826 
    5.4246 	   43.8070 	   23.0000 	   33.0000 	   23.2196 
    5.5314 	   43.8270 	   23.0000 	   33.0000 	   23.2606 
    5.3330 	   43.8470 	   23.0000 	   33.0000 	   23.3006 
    5.4551 	   43.8675 	   23.0000 	   33.0000 	   23.3416 
    5.5009 	   43.8860 	   23.0000 	   33.0000 	   23.3786 
    5.3788 	   43.9040 	   23.0000 	   33.0000 	   23.4146 
    5.4704 	   43.9225 	   23.0000 	   33.0000 	   23.4516 
    5.5467 	   43.9405 	   23.0000 	   33.0000 	   23.4876 
    5.4398 	   43.9590 	   23.0000 	   33.0000 	   23.5246 
    5.4704 	   43.9795 	   23.0000 	   33.0000 	   23.5656 
    5.3483 	   43.9975 	   23.0000 	   33.0000 	   23.6016 
    5.6077 	   44.0160 	   23.0000 	   33.0000 	   23.6386 
    5.5314 	   44.0340 	   23.0000 	   33.0000 	   23.6746 
    5.5009 	   44.0545 	   23.0000 	   33.0000 	   23.7156 
    5.6077 	   44.0735 	   23.0000 	   33.0000 	   23.7537 
    5.4704 	   44.0915 	   23.0000 	   33.0000 	   23.7897 
    5.4704 	   44.1110 	   23.0000 	   33.0000 	   23.8287 
    5.4704 	   44.1305 	   23.0000 	   33.0000 	   23.8677 
    5.5314 	   44.1505 	   23.0000 	   33.0000 	   23.9077 
    5.2720 	   44.1710 	   23.0000 	   33.0000 	   23.9487 
    5.5467 	   44.1910 	   23.0000 	   33.0000 	   23.9887 
    5.6687 	   44.2110 	   23.0000 	   33.0000 	   24.0287 
    5.6077 	   44.2310 	   23.0000 	   33.0000 	   24.0687 
    5.5314 	   44.2510 	   23.0000 	   33.0000 	   24.1087 
    5.4856 	   44.2710 	   23.0000 	   33.0000 	   24.1487 
    5.3788 	   44.2915 	   23.0000 	   33.0000 	   24.1897 
    5.6535 	   44.3105 	   23.0000 	   33.0000 	   24.2277 
    5.4551 	   44.3280 	   23.0000 	   33.0000 	   24.2627 
    5.4246 	   44.3460 	   23.0000 	   33.0000 	   24.2987 
    5.5314 	   44.3645 	   23.0000 	   33.0000 	   24.3357 
    5.5009 	   44.3830 	   23.0000 	   33.0000 	   24.3727 
    5.5467 	   44.4010 	   23.0000 	   33.0000 	   24.4087 
    5.6229 	   44.4190 	   23.0000 	   33.0000 	   24.4447 
    5.8671 	   44.4380 	   23.0000 	   33.0000 	   24.4827 
    5.6535 	   44.4575 	   23.0000 	   33.0000 	   24.5217 
    5.6229 	   44.4800 	   23.0000 	   33.0000 	   24.5667 
    5.5161 	   44.5000 	   23.0000 	   33.0000 	   24.6067 
    5.5619 	   44.5215 	   23.0000 	   33.0000 	   24.6497 
    5.5467 	   44.5420 	   23.0000 	   33.0000 	   24.6907 
    5.7450 	   44.5635 	   23.0000 	   33.0000 	   24.7337 
    5.6840 	   44.5840 	   23.0000 	   33.0000 	   24.7747 
    5.7298 	   44.6045 	   23.0000 	   33.0000 	   24.8157 
    5.6840 	   44.6240 	   23.0000 	   33.0000 	   24.8547 
    5.5467 	   44.6435 	   23.0000 	   33.0000 	   24.8937 
    5.5924 	   44.6635 	   23.0000 	   33.0000 	   24.9337 
    5.5467 	   44.6840 	   23.0000 	   33.0000 	   24.9747 
    5.5772 	   44.7040 	   23.0000 	   33.0000 	   25.0147 
    5.5772 	   44.7240 	   23.0000 	   33.0000 	   25.0547 
    5.7603 	   44.7425 	   23.0000 	   33.0000 	   25.0917 
    5.6382 	   44.7605 	   23.0000 	   33.0000 	   25.1277 
    5.5924 	   44.7780 	   23.0000 	   33.0000 	   25.1627 
    5.6535 	   44.7965 	   23.0000 	   33.0000 	   25.1987 
    5.5161 	   44.8145 	   23.0000 	   33.0000 	   25.2357 
    5.6229 	   44.8330 	   23.0000 	   33.0000 	   25.2727 
    5.7450 	   44.8510 	   23.0000 	   33.0000 	   25.3087 
    5.7145 	   44.8695 	   23.0000 	   33.0000 	   25.3457 
    5.6535 	   44.8870 	   23.0000 	   33.0000 	   25.3807 
    5.6535 	   44.9055 	   23.0000 	   33.0000 	   25.4177 
    5.6687 	   44.9235 	   23.0000 	   33.0000 	   25.4537 
    5.6535 	   44.9430 	   23.0000 	   33.0000 	   25.4928 
    5.7145 	   44.9620 	   23.0000 	   33.0000 	   25.5308 
    5.7298 	   44.9800 	   23.0000 	   33.0000 	   25.5668 
    5.6077 	   44.9985 	   23.0000 	   33.0000 	   25.6038 
    5.6077 	   45.0170 	   23.0000 	   33.0000 	   25.6408 
    5.7145 	   45.0350 	   23.0000 	   33.0000 	   25.6768 
    5.6535 	   45.0560 	   23.0000 	   33.0000 	   25.7188 
    5.8366 	   45.0750 	   23.0000 	   33.0000 	   25.7568 
    5.6687 	   45.0930 	   23.0000 	   33.0000 	   25.7928 
    5.6382 	   45.1110 	   23.0000 	   33.0000 	   25.8288 
    5.7450 	   45.1295 	   23.0000 	   33.0000 	   25.8658 
    5.6840 	   45.1470 	   23.0000 	   33.0000 	   25.9008 
    5.7298 	   45.1670 	   23.0000 	   33.0000 	   25.9408 
    5.6840 	   45.1865 	   23.0000 	   33.0000 	   25.9798 
    5.7450 	   45.2045 	   23.0000 	   33.0000 	   26.0158 
    5.6687 	   45.2230 	   23.0000 	   33.0000 	   26.0528 
    5.7298 	   45.2410 	   23.0000 	   33.0000 	   26.0888 
    5.6077 	   45.2595 	   23.0000 	   33.0000 	   26.1258 
    5.7755 	   45.2775 	   23.0000 	   33.0000 	   26.1618 
    5.7603 	   45.2955 	   23.0000 	   33.0000 	   26.1978 
    5.7450 	   45.3135 	   23.0000 	   33.0000 	   26.2338 
    5.7908 	   45.3320 	   23.0000 	   33.0000 	   26.2708 
    5.6992 	   45.3500 	   23.0000 	   33.0000 	   26.3068 
    5.6687 	   45.3680 	   23.0000 	   33.0000 	   26.3428 
    5.8213 	   45.3865 	   23.0000 	   33.0000 	   26.3798 
    5.6992 	   45.4045 	   23.0000 	   33.0000 	   26.4158 
    5.7145 	   45.4225 	   23.0000 	   33.0000 	   26.4518 
    5.5619 	   45.4420 	   23.0000 	   33.0000 	   26.4908 
    5.9281 	   45.4615 	   23.0000 	   33.0000 	   26.5298 
    5.4856 	   45.4795 	   23.0000 	   33.0000 	   26.5658 
    5.9892 	   45.4995 	   23.0000 	   33.0000 	   26.6058 
    5.7298 	   45.5175 	   23.0000 	   33.0000 	   26.6418 
    5.8213 	   45.5360 	   23.0000 	   33.0000 	   26.6788 
    5.7450 	   45.5540 	   23.0000 	   33.0000 	   26.7148 
    5.7755 	   45.5725 	   23.0000 	   33.0000 	   26.7518 
    5.7145 	   45.5910 	   23.0000 	   33.0000 	   26.7888 
    5.6992 	   45.6105 	   23.0000 	   33.0000 	   26.8278 
    5.7145 	   45.6305 	   23.0000 	   33.0000 	   26.8678 
    6.0349 	   45.6515 	   23.0000 	   33.0000 	   26.9098 
    5.8518 	   45.6710 	   23.0000 	   33.0000 	   26.9488 
    5.5619 	   45.6930 	   23.0000 	   33.0000 	   26.9928 
    5.8976 	   45.7130 	   23.0000 	   33.0000 	   27.0328 
    5.7450 	   45.7340 	   23.0000 	   33.0000 	   27.0748 
    6.0044 	   45.7540 	   23.0000 	   33.0000 	   27.1148 
    5.8671 	   45.7750 	   23.0000 	   33.0000 	   27.1568 
    5.9434 	   45.7950 	   23.0000 	   33.0000 	   27.1968 
    5.8213 	   45.8145 	   23.0000 	   33.0000 	   27.2359 
    5.7908 	   45.8350 	   23.0000 	   33.0000 	   27.2769 
    5.8671 	   45.8545 	   23.0000 	   33.0000 	   27.3159 
    5.8061 	   45.8750 	   23.0000 	   33.0000 	   27.3569 
    5.8366 	   45.8945 	   23.0000 	   33.0000 	   27.3959 
    5.7603 	   45.9150 	   23.0000 	   33.0000 	   27.4369 
    5.7603 	   45.9340 	   23.0000 	   33.0000 	   27.4749 
    5.8976 	   45.9545 	   23.0000 	   33.0000 	   27.5159 
    5.8976 	   45.9740 	   23.0000 	   33.0000 	   27.5549 
    5.9129 	   45.9935 	   23.0000 	   33.0000 	   27.5939 
    5.8976 	   46.0140 	   23.0000 	   33.0000 	   27.6349 
    5.8976 	   46.0350 	   23.0000 	   33.0000 	   27.6769 
    5.9434 	   46.0565 	   23.0000 	   33.0000 	   27.7199 
    5.8518 	   46.0765 	   23.0000 	   33.0000 	   27.7599 
    5.8213 	   46.0965 	   23.0000 	   33.0000 	   27.7999 
    5.8366 	   46.1175 	   23.0000 	   33.0000 	   27.8419 
    5.9129 	   46.1360 	   23.0000 	   33.0000 	   27.8789 
    5.8671 	   46.1545 	   23.0000 	   33.0000 	   27.9159 
    6.0044 	   46.1740 	   23.0000 	   33.0000 	   27.9549 
    6.0044 	   46.1935 	   23.0000 	   33.0000 	   27.9939 
    5.9129 	   46.2120 	   23.0000 	   33.0000 	   28.0309 
    5.9434 	   46.2310 	   23.0000 	   33.0000 	   28.0689 
    5.8671 	   46.2505 	   23.0000 	   33.0000 	   28.1079 
    5.9434 	   46.2705 	   23.0000 	   33.0000 	   28.1479 
    5.7603 	   46.2895 	   23.0000 	   33.0000 	   28.1859 
    5.8518 	   46.3105 	   23.0000 	   33.0000 	   28.2279 
    5.9434 	   46.3305 	   23.0000 	   33.0000 	   28.2679 
    5.9129 	   46.3515 	   23.0000 	   33.0000 	   28.3099 
    5.9434 	   46.3725 	   23.0000 	   33.0000 	   28.3519 
    6.0807 	   46.3945 	   23.0000 	   33.0000 	   28.3959 
    5.8518 	   46.4145 	   23.0000 	   33.0000 	   28.4359 
    5.8976 	   46.4355 	   23.0000 	   33.0000 	   28.4779 
    6.0960 	   46.4565 	   23.0000 	   33.0000 	   28.5189 
    5.9586 	   46.4765 	   23.0000 	   33.0000 	   28.5599 
    5.9281 	   46.4970 	   23.0000 	   33.0000 	   28.6009 
    5.9586 	   46.5170 	   23.0000 	   33.0000 	   28.6409 
    6.0502 	   46.5365 	   23.0000 	   33.0000 	   28.6799 
    6.1418 	   46.5580 	   23.0000 	   33.0000 	   28.7229 
    5.9892 	   46.5760 	   23.0000 	   33.0000 	   28.7589 
    6.0502 	   46.5935 	   23.0000 	   33.0000 	   28.7939 
    5.9892 	   46.6110 	   23.0000 	   33.0000 	   28.8289 
    6.0655 	   46.6290 	   23.0000 	   33.0000 	   28.8649 
    6.0349 	   46.6485 	   23.0000 	   33.0000 	   28.9039 
    5.9281 	   46.6675 	   23.0000 	   33.0000 	   28.9419 
    6.0807 	   46.6860 	   23.0000 	   33.0000 	   28.9790 
    5.9129 	   46.7040 	   23.0000 	   33.0000 	   29.0150 
    6.1418 	   46.7220 	   23.0000 	   33.0000 	   29.0510 
    6.1112 	   46.7405 	   23.0000 	   33.0000 	   29.0880 
    6.2028 	   46.7585 	   23.0000 	   33.0000 	   29.1240 
    6.0502 	   46.7765 	   23.0000 	   33.0000 	   29.1600 
    6.0502 	   46.7965 	   23.0000 	   33.0000 	   29.2000 
    6.0197 	   46.8145 	   23.0000 	   33.0000 	   29.2360 
    6.0655 	   46.8340 	   23.0000 	   33.0000 	   29.2750 
    5.9281 	   46.8535 	   23.0000 	   33.0000 	   29.3140 
    5.9281 	   46.8720 	   23.0000 	   33.0000 	   29.3510 
    5.8824 	   46.8905 	   23.0000 	   33.0000 	   29.3880 
    5.9586 	   46.9085 	   23.0000 	   33.0000 	   29.4240 
    6.1418 	   46.9270 	   23.0000 	   33.0000 	   29.4610 
    5.8213 	   46.9470 	   23.0000 	   33.0000 	   29.5010 
    5.9739 	   46.9660 	   23.0000 	   33.0000 	   29.5390 
    6.0044 	   46.9845 	   23.0000 	   33.0000 	   29.5760 
    6.0502 	   47.0035 	   23.0000 	   33.0000 	   29.6140 
    6.1875 	   47.0225 	   23.0000 	   33.0000 	   29.6520 
    6.1265 	   47.0430 	   23.0000 	   33.0000 	   29.6930 
    6.0502 	   47.0615 	   23.0000 	   33.0000 	   29.7300 
    5.9739 	   47.0800 	   23.0000 	   33.0000 	   29.7670 
