Thayer School of Engineering        Instron 4442 Mechanical Testing System
7/8/2018 11:44:32 PM

  Force (N)	Extension (mm)	Not Used	Not Used	Not Used	     Hour	    Minute	    Second
    0.4044 	    0.5210 	   23.0000 	   45.0000 	    1.0883 
    0.3433 	    0.5340 	   23.0000 	   45.0000 	    1.1143 
    0.4349 	    0.5700 	   23.0000 	   45.0000 	    1.1863 
    0.4044 	    0.6025 	   23.0000 	   45.0000 	    1.2513 
    0.4349 	    0.6295 	   23.0000 	   45.0000 	    1.3053 
    0.4349 	    0.6465 	   23.0000 	   45.0000 	    1.3393 
    0.4654 	    0.6630 	   23.0000 	   45.0000 	    1.3723 
    0.2365 	    0.6790 	   23.0000 	   45.0000 	    1.4043 
    0.4196 	    0.7090 	   23.0000 	   45.0000 	    1.4643 
    0.4501 	    0.7385 	   23.0000 	   45.0000 	    1.5233 
    0.4959 	    0.7655 	   23.0000 	   45.0000 	    1.5773 
    0.3128 	    0.7950 	   23.0000 	   45.0000 	    1.6363 
    0.4044 	    0.8215 	   23.0000 	   45.0000 	    1.6893 
    0.5570 	    0.8475 	   23.0000 	   45.0000 	    1.7413 
    0.5417 	    0.8745 	   23.0000 	   45.0000 	    1.7953 
    0.3281 	    0.9005 	   23.0000 	   45.0000 	    1.8473 
    0.4654 	    0.9275 	   23.0000 	   45.0000 	    1.9013 
    0.3738 	    0.9545 	   23.0000 	   45.0000 	    1.9553 
    0.4349 	    0.9815 	   23.0000 	   45.0000 	    2.0093 
    0.4654 	    1.0090 	   23.0000 	   45.0000 	    2.0643 
    0.5112 	    1.0265 	   23.0000 	   45.0000 	    2.0993 
    0.3586 	    1.0565 	   23.0000 	   45.0000 	    2.1593 
    0.4654 	    1.0730 	   23.0000 	   45.0000 	    2.1923 
    0.4044 	    1.1035 	   23.0000 	   45.0000 	    2.2533 
    0.5875 	    1.1295 	   23.0000 	   45.0000 	    2.3043 
    0.5264 	    1.1555 	   23.0000 	   45.0000 	    2.3573 
    0.3586 	    1.1805 	   23.0000 	   45.0000 	    2.4073 
    0.4196 	    1.2060 	   23.0000 	   45.0000 	    2.4583 
    0.2823 	    1.2305 	   23.0000 	   45.0000 	    2.5073 
    0.5570 	    1.2580 	   23.0000 	   45.0000 	    2.5624 
    0.5722 	    1.2825 	   23.0000 	   45.0000 	    2.6114 
    0.3433 	    1.3070 	   23.0000 	   45.0000 	    2.6604 
    0.4501 	    1.3210 	   23.0000 	   45.0000 	    2.6884 
    0.4196 	    1.3490 	   23.0000 	   45.0000 	    2.7444 
    0.2976 	    1.3745 	   23.0000 	   45.0000 	    2.7954 
    0.4196 	    1.4010 	   23.0000 	   45.0000 	    2.8484 
    0.2670 	    1.4275 	   23.0000 	   45.0000 	    2.9014 
    0.4501 	    1.4535 	   23.0000 	   45.0000 	    2.9534 
    0.5875 	    1.4810 	   23.0000 	   45.0000 	    3.0084 
    0.4349 	    1.5070 	   23.0000 	   45.0000 	    3.0604 
    0.4959 	    1.5325 	   23.0000 	   45.0000 	    3.1114 
    0.4349 	    1.5580 	   23.0000 	   45.0000 	    3.1624 
    0.4501 	    1.5850 	   23.0000 	   45.0000 	    3.2164 
    0.4959 	    1.5995 	   23.0000 	   45.0000 	    3.2454 
    0.4196 	    1.6150 	   23.0000 	   45.0000 	    3.2764 
    0.3738 	    1.6320 	   23.0000 	   45.0000 	    3.3104 
    0.4654 	    1.6485 	   23.0000 	   45.0000 	    3.3434 
    0.6180 	    1.6780 	   23.0000 	   45.0000 	    3.4024 
    0.4349 	    1.6945 	   23.0000 	   45.0000 	    3.4354 
    0.4196 	    1.7235 	   23.0000 	   45.0000 	    3.4934 
    0.4807 	    1.7385 	   23.0000 	   45.0000 	    3.5234 
    0.3433 	    1.7525 	   23.0000 	   45.0000 	    3.5514 
    0.2823 	    1.7670 	   23.0000 	   45.0000 	    3.5804 
    0.2670 	    1.7805 	   23.0000 	   45.0000 	    3.6074 
    0.4807 	    1.8080 	   23.0000 	   45.0000 	    3.6624 
    0.5570 	    1.8225 	   23.0000 	   45.0000 	    3.6914 
    0.5417 	    1.8385 	   23.0000 	   45.0000 	    3.7234 
    0.4654 	    1.8545 	   23.0000 	   45.0000 	    3.7554 
    0.4959 	    1.8705 	   23.0000 	   45.0000 	    3.7874 
    0.5112 	    1.8880 	   23.0000 	   45.0000 	    3.8224 
    0.6332 	    1.9040 	   23.0000 	   45.0000 	    3.8544 
    0.2518 	    1.9210 	   23.0000 	   45.0000 	    3.8884 
    0.5264 	    1.9375 	   23.0000 	   45.0000 	    3.9214 
    0.4044 	    1.9530 	   23.0000 	   45.0000 	    3.9524 
    0.6485 	    1.9700 	   23.0000 	   45.0000 	    3.9864 
    0.6332 	    1.9860 	   23.0000 	   45.0000 	    4.0184 
    0.5112 	    2.0025 	   23.0000 	   45.0000 	    4.0514 
    0.5112 	    2.0190 	   23.0000 	   45.0000 	    4.0844 
    0.4807 	    2.0340 	   23.0000 	   45.0000 	    4.1144 
    0.3891 	    2.0480 	   23.0000 	   45.0000 	    4.1424 
    0.4654 	    2.0645 	   23.0000 	   45.0000 	    4.1754 
    0.4501 	    2.0805 	   23.0000 	   45.0000 	    4.2074 
    0.4959 	    2.0960 	   23.0000 	   45.0000 	    4.2384 
    0.5722 	    2.1120 	   23.0000 	   45.0000 	    4.2704 
    0.4807 	    2.1270 	   23.0000 	   45.0000 	    4.3004 
    0.4501 	    2.1425 	   23.0000 	   45.0000 	    4.3315 
    0.4959 	    2.1590 	   23.0000 	   45.0000 	    4.3645 
    0.3281 	    2.1745 	   23.0000 	   45.0000 	    4.3955 
    0.6180 	    2.1895 	   23.0000 	   45.0000 	    4.4255 
    0.3891 	    2.2060 	   23.0000 	   45.0000 	    4.4585 
    0.2670 	    2.2230 	   23.0000 	   45.0000 	    4.4925 
    0.5417 	    2.2390 	   23.0000 	   45.0000 	    4.5245 
    0.5112 	    2.2565 	   23.0000 	   45.0000 	    4.5595 
    0.6638 	    2.2715 	   23.0000 	   45.0000 	    4.5895 
    0.4501 	    2.2880 	   23.0000 	   45.0000 	    4.6225 
    0.3891 	    2.3050 	   23.0000 	   45.0000 	    4.6565 
    0.6180 	    2.3215 	   23.0000 	   45.0000 	    4.6895 
    0.5570 	    2.3385 	   23.0000 	   45.0000 	    4.7235 
    0.6180 	    2.3555 	   23.0000 	   45.0000 	    4.7575 
    0.5875 	    2.3700 	   23.0000 	   45.0000 	    4.7865 
    0.5570 	    2.3855 	   23.0000 	   45.0000 	    4.8175 
    0.6332 	    2.4030 	   23.0000 	   45.0000 	    4.8525 
    0.6027 	    2.4200 	   23.0000 	   45.0000 	    4.8865 
    0.6638 	    2.4375 	   23.0000 	   45.0000 	    4.9215 
    0.5722 	    2.4555 	   23.0000 	   45.0000 	    4.9575 
    0.3891 	    2.4705 	   23.0000 	   45.0000 	    4.9875 
    0.4501 	    2.4880 	   23.0000 	   45.0000 	    5.0225 
    0.4654 	    2.5035 	   23.0000 	   45.0000 	    5.0535 
    0.5417 	    2.5195 	   23.0000 	   45.0000 	    5.0855 
    0.5875 	    2.5365 	   23.0000 	   45.0000 	    5.1195 
    0.6943 	    2.5515 	   23.0000 	   45.0000 	    5.1495 
    0.6790 	    2.5680 	   23.0000 	   45.0000 	    5.1825 
    0.3433 	    2.5845 	   23.0000 	   45.0000 	    5.2155 
    0.5417 	    2.5990 	   23.0000 	   45.0000 	    5.2445 
    0.5570 	    2.6160 	   23.0000 	   45.0000 	    5.2785 
    0.6027 	    2.6315 	   23.0000 	   45.0000 	    5.3095 
    0.6790 	    2.6485 	   23.0000 	   45.0000 	    5.3435 
    0.5875 	    2.6655 	   23.0000 	   45.0000 	    5.3775 
    0.5875 	    2.6805 	   23.0000 	   45.0000 	    5.4075 
    0.5875 	    2.6975 	   23.0000 	   45.0000 	    5.4415 
    0.7858 	    2.7135 	   23.0000 	   45.0000 	    5.4735 
    0.6638 	    2.7285 	   23.0000 	   45.0000 	    5.5035 
    0.5875 	    2.7585 	   23.0000 	   45.0000 	    5.5635 
    0.7401 	    2.7730 	   23.0000 	   45.0000 	    5.5925 
    0.5570 	    2.7890 	   23.0000 	   45.0000 	    5.6245 
    0.4959 	    2.8060 	   23.0000 	   45.0000 	    5.6585 
    0.8621 	    2.8215 	   23.0000 	   45.0000 	    5.6895 
    0.5417 	    2.8380 	   23.0000 	   45.0000 	    5.7225 
    0.6943 	    2.8540 	   23.0000 	   45.0000 	    5.7545 
    0.6485 	    2.8690 	   23.0000 	   45.0000 	    5.7845 
    0.6943 	    2.8865 	   23.0000 	   45.0000 	    5.8195 
    0.6332 	    2.9015 	   23.0000 	   45.0000 	    5.8495 
    0.5722 	    2.9160 	   23.0000 	   45.0000 	    5.8785 
    0.6485 	    2.9310 	   23.0000 	   45.0000 	    5.9085 
    0.5112 	    2.9455 	   23.0000 	   45.0000 	    5.9375 
    0.5570 	    2.9600 	   23.0000 	   45.0000 	    5.9665 
    0.5417 	    2.9750 	   23.0000 	   45.0000 	    5.9965 
    0.6180 	    2.9920 	   23.0000 	   45.0000 	    6.0305 
    0.5570 	    3.0070 	   23.0000 	   45.0000 	    6.0606 
    0.5417 	    3.0220 	   23.0000 	   45.0000 	    6.0906 
    0.5570 	    3.0390 	   23.0000 	   45.0000 	    6.1246 
    0.6180 	    3.0545 	   23.0000 	   45.0000 	    6.1556 
    0.7401 	    3.0695 	   23.0000 	   45.0000 	    6.1856 
    0.7401 	    3.0860 	   23.0000 	   45.0000 	    6.2186 
    0.6027 	    3.1010 	   23.0000 	   45.0000 	    6.2486 
    0.6027 	    3.1165 	   23.0000 	   45.0000 	    6.2796 
    0.6943 	    3.1325 	   23.0000 	   45.0000 	    6.3116 
    0.6485 	    3.1485 	   23.0000 	   45.0000 	    6.3436 
    0.6943 	    3.1645 	   23.0000 	   45.0000 	    6.3756 
    0.7401 	    3.1800 	   23.0000 	   45.0000 	    6.4066 
    0.6332 	    3.1965 	   23.0000 	   45.0000 	    6.4396 
    0.6180 	    3.2120 	   23.0000 	   45.0000 	    6.4706 
    0.6638 	    3.2265 	   23.0000 	   45.0000 	    6.4996 
    0.6943 	    3.2435 	   23.0000 	   45.0000 	    6.5336 
    0.7706 	    3.2585 	   23.0000 	   45.0000 	    6.5626 
    0.8164 	    3.2735 	   23.0000 	   45.0000 	    6.5936 
    0.3738 	    3.2890 	   23.0000 	   45.0000 	    6.6246 
    0.7401 	    3.3050 	   23.0000 	   45.0000 	    6.6566 
    0.7858 	    3.3200 	   23.0000 	   45.0000 	    6.6866 
    0.7553 	    3.3375 	   23.0000 	   45.0000 	    6.7216 
    0.5722 	    3.3530 	   23.0000 	   45.0000 	    6.7526 
    0.7095 	    3.3685 	   23.0000 	   45.0000 	    6.7836 
    0.6180 	    3.3855 	   23.0000 	   45.0000 	    6.8176 
    0.6180 	    3.4000 	   23.0000 	   45.0000 	    6.8466 
    0.6027 	    3.4165 	   23.0000 	   45.0000 	    6.8796 
    0.9537 	    3.4335 	   23.0000 	   45.0000 	    6.9136 
    0.8011 	    3.4485 	   23.0000 	   45.0000 	    6.9436 
    0.7401 	    3.4650 	   23.0000 	   45.0000 	    6.9766 
    0.7401 	    3.4810 	   23.0000 	   45.0000 	    7.0086 
    0.6790 	    3.4990 	   23.0000 	   45.0000 	    7.0446 
    0.8316 	    3.5140 	   23.0000 	   45.0000 	    7.0746 
    0.8011 	    3.5290 	   23.0000 	   45.0000 	    7.1046 
    0.6943 	    3.5470 	   23.0000 	   45.0000 	    7.1406 
    0.7553 	    3.5625 	   23.0000 	   45.0000 	    7.1716 
    0.6638 	    3.5785 	   23.0000 	   45.0000 	    7.2036 
    0.7706 	    3.5945 	   23.0000 	   45.0000 	    7.2356 
    0.7858 	    3.6090 	   23.0000 	   45.0000 	    7.2646 
    0.6638 	    3.6245 	   23.0000 	   45.0000 	    7.2956 
    0.6943 	    3.6420 	   23.0000 	   45.0000 	    7.3306 
    0.7706 	    3.6570 	   23.0000 	   45.0000 	    7.3606 
    0.9384 	    3.6725 	   23.0000 	   45.0000 	    7.3916 
    0.7858 	    3.6895 	   23.0000 	   45.0000 	    7.4256 
    0.9079 	    3.7045 	   23.0000 	   45.0000 	    7.4556 
    0.7401 	    3.7200 	   23.0000 	   45.0000 	    7.4866 
    0.8621 	    3.7365 	   23.0000 	   45.0000 	    7.5196 
    0.8011 	    3.7510 	   23.0000 	   45.0000 	    7.5486 
    0.7858 	    3.7670 	   23.0000 	   45.0000 	    7.5806 
    0.9537 	    3.7830 	   23.0000 	   45.0000 	    7.6126 
    0.7095 	    3.7995 	   23.0000 	   45.0000 	    7.6456 
    0.7553 	    3.8150 	   23.0000 	   45.0000 	    7.6766 
    0.9079 	    3.8300 	   23.0000 	   45.0000 	    7.7066 
    0.8316 	    3.8465 	   23.0000 	   45.0000 	    7.7396 
    0.8927 	    3.8615 	   23.0000 	   45.0000 	    7.7696 
    0.9232 	    3.8780 	   23.0000 	   45.0000 	    7.8026 
    0.8774 	    3.8945 	   23.0000 	   45.0000 	    7.8357 
    0.7858 	    3.9095 	   23.0000 	   45.0000 	    7.8657 
    0.9384 	    3.9255 	   23.0000 	   45.0000 	    7.8977 
    0.8621 	    3.9415 	   23.0000 	   45.0000 	    7.9297 
    0.8927 	    3.9575 	   23.0000 	   45.0000 	    7.9617 
    0.9384 	    3.9740 	   23.0000 	   45.0000 	    7.9947 
    0.9079 	    3.9890 	   23.0000 	   45.0000 	    8.0247 
    0.8774 	    4.0045 	   23.0000 	   45.0000 	    8.0557 
    0.8621 	    4.0200 	   23.0000 	   45.0000 	    8.0867 
    0.8011 	    4.0365 	   23.0000 	   45.0000 	    8.1197 
    0.9384 	    4.0525 	   23.0000 	   45.0000 	    8.1517 
    0.8621 	    4.0685 	   23.0000 	   45.0000 	    8.1837 
    0.8927 	    4.0835 	   23.0000 	   45.0000 	    8.2137 
    0.8774 	    4.0995 	   23.0000 	   45.0000 	    8.2457 
    0.6943 	    4.1150 	   23.0000 	   45.0000 	    8.2767 
    0.8774 	    4.1295 	   23.0000 	   45.0000 	    8.3057 
    0.7706 	    4.1470 	   23.0000 	   45.0000 	    8.3407 
    0.9384 	    4.1620 	   23.0000 	   45.0000 	    8.3707 
    0.9079 	    4.1775 	   23.0000 	   45.0000 	    8.4017 
    0.9995 	    4.1930 	   23.0000 	   45.0000 	    8.4327 
    0.8316 	    4.2080 	   23.0000 	   45.0000 	    8.4627 
    0.8164 	    4.2230 	   23.0000 	   45.0000 	    8.4927 
    0.6638 	    4.2390 	   23.0000 	   45.0000 	    8.5247 
    0.9384 	    4.2550 	   23.0000 	   45.0000 	    8.5567 
    0.8927 	    4.2705 	   23.0000 	   45.0000 	    8.5877 
    0.8621 	    4.2870 	   23.0000 	   45.0000 	    8.6207 
    0.6332 	    4.3025 	   23.0000 	   45.0000 	    8.6517 
    0.8927 	    4.3175 	   23.0000 	   45.0000 	    8.6817 
    0.7553 	    4.3345 	   23.0000 	   45.0000 	    8.7157 
    1.0910 	    4.3500 	   23.0000 	   45.0000 	    8.7457 
    0.9232 	    4.3660 	   23.0000 	   45.0000 	    8.7787 
    0.8469 	    4.3815 	   23.0000 	   45.0000 	    8.8097 
    0.8621 	    4.3970 	   23.0000 	   45.0000 	    8.8407 
    0.7095 	    4.4130 	   23.0000 	   45.0000 	    8.8727 
    0.9537 	    4.4280 	   23.0000 	   45.0000 	    8.9027 
    1.0147 	    4.4445 	   23.0000 	   45.0000 	    8.9357 
    0.9995 	    4.4605 	   23.0000 	   45.0000 	    8.9677 
    1.1215 	    4.4750 	   23.0000 	   45.0000 	    8.9967 
    0.5417 	    4.4905 	   23.0000 	   45.0000 	    9.0277 
    0.9537 	    4.5065 	   23.0000 	   45.0000 	    9.0597 
    0.8621 	    4.5230 	   23.0000 	   45.0000 	    9.0927 
    0.7553 	    4.5405 	   23.0000 	   45.0000 	    9.1277 
    1.1673 	    4.5565 	   23.0000 	   45.0000 	    9.1597 
    0.8469 	    4.5715 	   23.0000 	   45.0000 	    9.1897 
    0.7095 	    4.5870 	   23.0000 	   45.0000 	    9.2207 
    0.9995 	    4.6025 	   23.0000 	   45.0000 	    9.2517 
    1.1063 	    4.6175 	   23.0000 	   45.0000 	    9.2817 
    1.0300 	    4.6335 	   23.0000 	   45.0000 	    9.3137 
    0.9384 	    4.6495 	   23.0000 	   45.0000 	    9.3457 
    0.9689 	    4.6650 	   23.0000 	   45.0000 	    9.3767 
    1.0300 	    4.6805 	   23.0000 	   45.0000 	    9.4077 
    0.9384 	    4.6955 	   23.0000 	   45.0000 	    9.4377 
    0.8621 	    4.7105 	   23.0000 	   45.0000 	    9.4677 
    0.8774 	    4.7255 	   23.0000 	   45.0000 	    9.4977 
    1.0910 	    4.7425 	   23.0000 	   45.0000 	    9.5317 
    0.9995 	    4.7585 	   23.0000 	   45.0000 	    9.5638 
    0.9995 	    4.7735 	   23.0000 	   45.0000 	    9.5938 
    0.9842 	    4.7890 	   23.0000 	   45.0000 	    9.6248 
    0.9689 	    4.8060 	   23.0000 	   45.0000 	    9.6588 
    1.0452 	    4.8225 	   23.0000 	   45.0000 	    9.6918 
    0.9995 	    4.8400 	   23.0000 	   45.0000 	    9.7268 
    0.9995 	    4.8565 	   23.0000 	   45.0000 	    9.7598 
    0.9995 	    4.8725 	   23.0000 	   45.0000 	    9.7918 
    1.0758 	    4.8890 	   23.0000 	   45.0000 	    9.8248 
    1.1673 	    4.9035 	   23.0000 	   45.0000 	    9.8538 
    0.9842 	    4.9185 	   23.0000 	   45.0000 	    9.8838 
    0.9689 	    4.9350 	   23.0000 	   45.0000 	    9.9168 
    1.1215 	    4.9495 	   23.0000 	   45.0000 	    9.9458 
    0.9384 	    4.9645 	   23.0000 	   45.0000 	    9.9758 
    1.0147 	    4.9795 	   23.0000 	   45.0000 	   10.0058 
    1.1368 	    4.9955 	   23.0000 	   45.0000 	   10.0378 
    1.2284 	    5.0110 	   23.0000 	   45.0000 	   10.0688 
    1.0452 	    5.0260 	   23.0000 	   45.0000 	   10.0988 
    0.9384 	    5.0570 	   23.0000 	   45.0000 	   10.1608 
    1.0300 	    5.0735 	   23.0000 	   45.0000 	   10.1938 
    1.0605 	    5.0895 	   23.0000 	   45.0000 	   10.2258 
    1.1521 	    5.1050 	   23.0000 	   45.0000 	   10.2568 
    0.8316 	    5.1210 	   23.0000 	   45.0000 	   10.2888 
    0.9842 	    5.1380 	   23.0000 	   45.0000 	   10.3228 
    1.0605 	    5.1540 	   23.0000 	   45.0000 	   10.3548 
    1.0758 	    5.1695 	   23.0000 	   45.0000 	   10.3858 
    1.0910 	    5.1855 	   23.0000 	   45.0000 	   10.4178 
    1.2284 	    5.2010 	   23.0000 	   45.0000 	   10.4478 
    1.0605 	    5.2165 	   23.0000 	   45.0000 	   10.4798 
    0.9995 	    5.2340 	   23.0000 	   45.0000 	   10.5148 
    1.1368 	    5.2500 	   23.0000 	   45.0000 	   10.5468 
    1.0758 	    5.2650 	   23.0000 	   45.0000 	   10.5768 
    1.1826 	    5.2800 	   23.0000 	   45.0000 	   10.6068 
    1.0758 	    5.2965 	   23.0000 	   45.0000 	   10.6398 
    1.3199 	    5.3125 	   23.0000 	   45.0000 	   10.6718 
    1.1063 	    5.3280 	   23.0000 	   45.0000 	   10.7028 
    1.1521 	    5.3595 	   23.0000 	   45.0000 	   10.7658 
    0.9384 	    5.3740 	   23.0000 	   45.0000 	   10.7948 
    1.1978 	    5.3895 	   23.0000 	   45.0000 	   10.8258 
    1.1521 	    5.4055 	   23.0000 	   45.0000 	   10.8578 
    1.1673 	    5.4210 	   23.0000 	   45.0000 	   10.8888 
    1.0605 	    5.4385 	   23.0000 	   45.0000 	   10.9238 
    1.0910 	    5.4540 	   23.0000 	   45.0000 	   10.9548 
    1.1063 	    5.4690 	   23.0000 	   45.0000 	   10.9848 
    1.1673 	    5.4840 	   23.0000 	   45.0000 	   11.0148 
    1.1063 	    5.5005 	   23.0000 	   45.0000 	   11.0478 
    1.0910 	    5.5155 	   23.0000 	   45.0000 	   11.0778 
    1.1521 	    5.5330 	   23.0000 	   45.0000 	   11.1128 
    1.0605 	    5.5490 	   23.0000 	   45.0000 	   11.1448 
    1.2436 	    5.5655 	   23.0000 	   45.0000 	   11.1778 
    1.1673 	    5.5810 	   23.0000 	   45.0000 	   11.2088 
    1.1521 	    5.5970 	   23.0000 	   45.0000 	   11.2408 
    1.1368 	    5.6130 	   23.0000 	   45.0000 	   11.2728 
    1.1368 	    5.6290 	   23.0000 	   45.0000 	   11.3049 
    1.0605 	    5.6465 	   23.0000 	   45.0000 	   11.3399 
    1.3199 	    5.6610 	   23.0000 	   45.0000 	   11.3689 
    1.0910 	    5.6765 	   23.0000 	   45.0000 	   11.3999 
    1.1673 	    5.6915 	   23.0000 	   45.0000 	   11.4299 
    1.1521 	    5.7080 	   23.0000 	   45.0000 	   11.4629 
    1.1368 	    5.7240 	   23.0000 	   45.0000 	   11.4949 
    1.2131 	    5.7415 	   23.0000 	   45.0000 	   11.5299 
    1.0910 	    5.7565 	   23.0000 	   45.0000 	   11.5599 
    1.3657 	    5.7720 	   23.0000 	   45.0000 	   11.5909 
    1.2894 	    5.7880 	   23.0000 	   45.0000 	   11.6229 
    1.0147 	    5.8060 	   23.0000 	   45.0000 	   11.6589 
    1.2894 	    5.8225 	   23.0000 	   45.0000 	   11.6919 
    1.3046 	    5.8395 	   23.0000 	   45.0000 	   11.7259 
    1.2589 	    5.8555 	   23.0000 	   45.0000 	   11.7579 
    1.2436 	    5.8720 	   23.0000 	   45.0000 	   11.7909 
    1.0452 	    5.8885 	   23.0000 	   45.0000 	   11.8239 
    1.1826 	    5.9035 	   23.0000 	   45.0000 	   11.8539 
    1.3046 	    5.9180 	   23.0000 	   45.0000 	   11.8829 
    1.2589 	    5.9355 	   23.0000 	   45.0000 	   11.9179 
    0.8621 	    5.9510 	   23.0000 	   45.0000 	   11.9489 
    1.2589 	    5.9670 	   23.0000 	   45.0000 	   11.9809 
    1.2436 	    5.9830 	   23.0000 	   45.0000 	   12.0129 
    1.1063 	    5.9990 	   23.0000 	   45.0000 	   12.0449 
    1.1826 	    6.0145 	   23.0000 	   45.0000 	   12.0759 
    1.1826 	    6.0305 	   23.0000 	   45.0000 	   12.1079 
    1.3352 	    6.0490 	   23.0000 	   45.0000 	   12.1449 
    1.1368 	    6.0650 	   23.0000 	   45.0000 	   12.1769 
    1.3046 	    6.0815 	   23.0000 	   45.0000 	   12.2099 
    1.2436 	    6.0970 	   23.0000 	   45.0000 	   12.2409 
    1.1673 	    6.1130 	   23.0000 	   45.0000 	   12.2729 
    0.9232 	    6.1285 	   23.0000 	   45.0000 	   12.3039 
    1.3352 	    6.1450 	   23.0000 	   45.0000 	   12.3369 
    1.2894 	    6.1605 	   23.0000 	   45.0000 	   12.3679 
    1.1215 	    6.1765 	   23.0000 	   45.0000 	   12.3999 
    1.1673 	    6.1920 	   23.0000 	   45.0000 	   12.4309 
    1.2131 	    6.2075 	   23.0000 	   45.0000 	   12.4619 
    1.2589 	    6.2225 	   23.0000 	   45.0000 	   12.4919 
    1.1673 	    6.2385 	   23.0000 	   45.0000 	   12.5239 
    1.2436 	    6.2540 	   23.0000 	   45.0000 	   12.5549 
    1.3657 	    6.2690 	   23.0000 	   45.0000 	   12.5849 
    1.2894 	    6.2855 	   23.0000 	   45.0000 	   12.6179 
    1.2131 	    6.3020 	   23.0000 	   45.0000 	   12.6509 
    1.1521 	    6.3185 	   23.0000 	   45.0000 	   12.6839 
    1.2436 	    6.3335 	   23.0000 	   45.0000 	   12.7139 
    1.1673 	    6.3495 	   23.0000 	   45.0000 	   12.7459 
    1.2284 	    6.3650 	   23.0000 	   45.0000 	   12.7769 
    1.2284 	    6.3815 	   23.0000 	   45.0000 	   12.8099 
    1.2589 	    6.3970 	   23.0000 	   45.0000 	   12.8409 
    1.2589 	    6.4130 	   23.0000 	   45.0000 	   12.8729 
    1.2589 	    6.4290 	   23.0000 	   45.0000 	   12.9049 
    1.3352 	    6.4465 	   23.0000 	   45.0000 	   12.9399 
    1.2284 	    6.4625 	   23.0000 	   45.0000 	   12.9719 
    1.3504 	    6.4785 	   23.0000 	   45.0000 	   13.0039 
    1.1215 	    6.4945 	   23.0000 	   45.0000 	   13.0359 
    1.1978 	    6.5105 	   23.0000 	   45.0000 	   13.0680 
    1.1978 	    6.5260 	   23.0000 	   45.0000 	   13.0990 
    1.3504 	    6.5425 	   23.0000 	   45.0000 	   13.1320 
    1.2589 	    6.5580 	   23.0000 	   45.0000 	   13.1630 
    1.0300 	    6.5735 	   23.0000 	   45.0000 	   13.1940 
    1.0910 	    6.5905 	   23.0000 	   45.0000 	   13.2280 
    1.3657 	    6.6070 	   23.0000 	   45.0000 	   13.2610 
    1.2741 	    6.6230 	   23.0000 	   45.0000 	   13.2930 
    1.1826 	    6.6400 	   23.0000 	   45.0000 	   13.3270 
    1.4267 	    6.6565 	   23.0000 	   45.0000 	   13.3600 
    1.2741 	    6.6730 	   23.0000 	   45.0000 	   13.3930 
    1.3352 	    6.6900 	   23.0000 	   45.0000 	   13.4270 
    1.3046 	    6.7050 	   23.0000 	   45.0000 	   13.4570 
    1.2894 	    6.7205 	   23.0000 	   45.0000 	   13.4880 
    1.4115 	    6.7355 	   23.0000 	   45.0000 	   13.5180 
    1.4267 	    6.7520 	   23.0000 	   45.0000 	   13.5510 
    1.3809 	    6.7680 	   23.0000 	   45.0000 	   13.5830 
    1.2741 	    6.7845 	   23.0000 	   45.0000 	   13.6160 
    1.1826 	    6.8060 	   23.0000 	   45.0000 	   13.6590 
    1.1673 	    6.8225 	   23.0000 	   45.0000 	   13.6920 
    1.1826 	    6.8400 	   23.0000 	   45.0000 	   13.7270 
    1.3504 	    6.8555 	   23.0000 	   45.0000 	   13.7580 
    0.9995 	    6.8710 	   23.0000 	   45.0000 	   13.7890 
    1.0300 	    6.8875 	   23.0000 	   45.0000 	   13.8220 
    1.3657 	    6.9030 	   23.0000 	   45.0000 	   13.8530 
    1.3199 	    6.9190 	   23.0000 	   45.0000 	   13.8850 
    1.2436 	    6.9340 	   23.0000 	   45.0000 	   13.9150 
    1.2284 	    6.9490 	   23.0000 	   45.0000 	   13.9450 
    1.3504 	    6.9650 	   23.0000 	   45.0000 	   13.9770 
    1.3962 	    6.9800 	   23.0000 	   45.0000 	   14.0070 
    1.3504 	    6.9955 	   23.0000 	   45.0000 	   14.0380 
    1.3046 	    7.0115 	   23.0000 	   45.0000 	   14.0700 
    1.1978 	    7.0265 	   23.0000 	   45.0000 	   14.1000 
    1.2894 	    7.0440 	   23.0000 	   45.0000 	   14.1350 
    1.3352 	    7.0590 	   23.0000 	   45.0000 	   14.1650 
    1.3657 	    7.0750 	   23.0000 	   45.0000 	   14.1970 
    1.3352 	    7.0915 	   23.0000 	   45.0000 	   14.2300 
    1.3199 	    7.1075 	   23.0000 	   45.0000 	   14.2620 
    1.1673 	    7.1240 	   23.0000 	   45.0000 	   14.2950 
    1.4267 	    7.1415 	   23.0000 	   45.0000 	   14.3300 
    1.3199 	    7.1570 	   23.0000 	   45.0000 	   14.3610 
    1.3504 	    7.1735 	   23.0000 	   45.0000 	   14.3940 
    1.3199 	    7.1915 	   23.0000 	   45.0000 	   14.4300 
    1.3046 	    7.2075 	   23.0000 	   45.0000 	   14.4620 
    1.5183 	    7.2240 	   23.0000 	   45.0000 	   14.4950 
    1.4725 	    7.2410 	   23.0000 	   45.0000 	   14.5290 
    1.2894 	    7.2575 	   23.0000 	   45.0000 	   14.5620 
    1.5488 	    7.2735 	   23.0000 	   45.0000 	   14.5940 
    1.3962 	    7.2880 	   23.0000 	   45.0000 	   14.6230 
    1.4420 	    7.3025 	   23.0000 	   45.0000 	   14.6520 
    1.2894 	    7.3180 	   23.0000 	   45.0000 	   14.6830 
    1.2436 	    7.3335 	   23.0000 	   45.0000 	   14.7140 
    1.3352 	    7.3505 	   23.0000 	   45.0000 	   14.7480 
    1.3962 	    7.3650 	   23.0000 	   45.0000 	   14.7770 
    1.4115 	    7.3785 	   23.0000 	   45.0000 	   14.8041 
    1.3352 	    7.3930 	   23.0000 	   45.0000 	   14.8331 
    1.0758 	    7.4070 	   23.0000 	   45.0000 	   14.8611 
    1.4572 	    7.4210 	   23.0000 	   45.0000 	   14.8891 
    1.4115 	    7.4375 	   23.0000 	   45.0000 	   14.9221 
    1.5030 	    7.4515 	   23.0000 	   45.0000 	   14.9501 
    1.3504 	    7.4665 	   23.0000 	   45.0000 	   14.9801 
    1.4725 	    7.4810 	   23.0000 	   45.0000 	   15.0091 
    1.3504 	    7.4965 	   23.0000 	   45.0000 	   15.0401 
    1.3962 	    7.5115 	   23.0000 	   45.0000 	   15.0701 
    1.3657 	    7.5260 	   23.0000 	   45.0000 	   15.0991 
    1.1368 	    7.5410 	   23.0000 	   45.0000 	   15.1291 
    1.4420 	    7.5565 	   23.0000 	   45.0000 	   15.1601 
    1.3962 	    7.5720 	   23.0000 	   45.0000 	   15.1911 
    1.4115 	    7.5865 	   23.0000 	   45.0000 	   15.2201 
    1.4115 	    7.6015 	   23.0000 	   45.0000 	   15.2501 
    1.3809 	    7.6175 	   23.0000 	   45.0000 	   15.2821 
    1.5030 	    7.6340 	   23.0000 	   45.0000 	   15.3151 
    1.4878 	    7.6495 	   23.0000 	   45.0000 	   15.3461 
    1.4725 	    7.6655 	   23.0000 	   45.0000 	   15.3781 
    1.4267 	    7.6805 	   23.0000 	   45.0000 	   15.4081 
    1.4267 	    7.6955 	   23.0000 	   45.0000 	   15.4381 
    1.3962 	    7.7105 	   23.0000 	   45.0000 	   15.4681 
    1.5030 	    7.7250 	   23.0000 	   45.0000 	   15.4971 
    1.3046 	    7.7395 	   23.0000 	   45.0000 	   15.5261 
    1.6251 	    7.7545 	   23.0000 	   45.0000 	   15.5551 
    1.3657 	    7.7680 	   23.0000 	   45.0000 	   15.5821 
    1.4878 	    7.7850 	   23.0000 	   45.0000 	   15.6161 
    1.4115 	    7.8055 	   23.0000 	   45.0000 	   15.6571 
    1.4725 	    7.8195 	   23.0000 	   45.0000 	   15.6851 
    1.5946 	    7.8355 	   23.0000 	   45.0000 	   15.7171 
    1.3962 	    7.8530 	   23.0000 	   45.0000 	   15.7521 
    1.2741 	    7.8680 	   23.0000 	   45.0000 	   15.7821 
    1.4725 	    7.8820 	   23.0000 	   45.0000 	   15.8101 
    1.5030 	    7.8970 	   23.0000 	   45.0000 	   15.8401 
    1.3046 	    7.9115 	   23.0000 	   45.0000 	   15.8691 
    1.3809 	    7.9260 	   23.0000 	   45.0000 	   15.8981 
    1.4420 	    7.9400 	   23.0000 	   45.0000 	   15.9261 
    1.4420 	    7.9540 	   23.0000 	   45.0000 	   15.9541 
    1.3962 	    7.9685 	   23.0000 	   45.0000 	   15.9831 
    1.2589 	    7.9825 	   23.0000 	   45.0000 	   16.0111 
    1.4115 	    7.9990 	   23.0000 	   45.0000 	   16.0441 
    1.5030 	    8.0140 	   23.0000 	   45.0000 	   16.0741 
    1.1673 	    8.0285 	   23.0000 	   45.0000 	   16.1031 
    1.3809 	    8.0455 	   23.0000 	   45.0000 	   16.1371 
    1.4267 	    8.0595 	   23.0000 	   45.0000 	   16.1651 
    1.6098 	    8.0735 	   23.0000 	   45.0000 	   16.1931 
    1.4115 	    8.0885 	   23.0000 	   45.0000 	   16.2231 
    1.4420 	    8.1035 	   23.0000 	   45.0000 	   16.2531 
    1.5793 	    8.1180 	   23.0000 	   45.0000 	   16.2821 
    1.3504 	    8.1335 	   23.0000 	   45.0000 	   16.3131 
    1.5793 	    8.1480 	   23.0000 	   45.0000 	   16.3421 
    1.4420 	    8.1630 	   23.0000 	   45.0000 	   16.3721 
    1.3962 	    8.1790 	   23.0000 	   45.0000 	   16.4041 
    1.5030 	    8.1955 	   23.0000 	   45.0000 	   16.4371 
    1.6098 	    8.2110 	   23.0000 	   45.0000 	   16.4681 
    1.3962 	    8.2260 	   23.0000 	   45.0000 	   16.4981 
    1.3962 	    8.2425 	   23.0000 	   45.0000 	   16.5311 
    1.4420 	    8.2580 	   23.0000 	   45.0000 	   16.5622 
    1.3504 	    8.2735 	   23.0000 	   45.0000 	   16.5932 
    1.5946 	    8.2885 	   23.0000 	   45.0000 	   16.6232 
    1.3657 	    8.3040 	   23.0000 	   45.0000 	   16.6542 
    1.4267 	    8.3190 	   23.0000 	   45.0000 	   16.6842 
    1.4115 	    8.3350 	   23.0000 	   45.0000 	   16.7162 
    1.3046 	    8.3495 	   23.0000 	   45.0000 	   16.7452 
    1.4572 	    8.3650 	   23.0000 	   45.0000 	   16.7762 
    1.4267 	    8.3820 	   23.0000 	   45.0000 	   16.8102 
    1.4115 	    8.3970 	   23.0000 	   45.0000 	   16.8402 
    1.4420 	    8.4110 	   23.0000 	   45.0000 	   16.8682 
    1.2741 	    8.4255 	   23.0000 	   45.0000 	   16.8972 
    1.5640 	    8.4410 	   23.0000 	   45.0000 	   16.9282 
    1.6556 	    8.4565 	   23.0000 	   45.0000 	   16.9592 
    1.4115 	    8.4705 	   23.0000 	   45.0000 	   16.9872 
    1.5640 	    8.4850 	   23.0000 	   45.0000 	   17.0162 
    1.3809 	    8.4990 	   23.0000 	   45.0000 	   17.0442 
    1.6709 	    8.5135 	   23.0000 	   45.0000 	   17.0732 
    1.4420 	    8.5290 	   23.0000 	   45.0000 	   17.1032 
    1.4267 	    8.5445 	   23.0000 	   45.0000 	   17.1352 
    1.4725 	    8.5595 	   23.0000 	   45.0000 	   17.1652 
    1.6251 	    8.5755 	   23.0000 	   45.0000 	   17.1972 
    1.4420 	    8.5900 	   23.0000 	   45.0000 	   17.2262 
    1.4420 	    8.6040 	   23.0000 	   45.0000 	   17.2542 
    1.4115 	    8.6190 	   23.0000 	   45.0000 	   17.2842 
    1.6403 	    8.6365 	   23.0000 	   45.0000 	   17.3192 
    1.4420 	    8.6525 	   23.0000 	   45.0000 	   17.3512 
    1.6251 	    8.6695 	   23.0000 	   45.0000 	   17.3852 
    1.5488 	    8.6865 	   23.0000 	   45.0000 	   17.4192 
    1.4725 	    8.7030 	   23.0000 	   45.0000 	   17.4522 
    1.4420 	    8.7205 	   23.0000 	   45.0000 	   17.4872 
    1.4725 	    8.7370 	   23.0000 	   45.0000 	   17.5202 
    1.4420 	    8.7530 	   23.0000 	   45.0000 	   17.5522 
    1.5335 	    8.7690 	   23.0000 	   45.0000 	   17.5842 
    1.5946 	    8.7845 	   23.0000 	   45.0000 	   17.6152 
    1.3809 	    8.8015 	   23.0000 	   45.0000 	   17.6492 
    1.4878 	    8.8175 	   23.0000 	   45.0000 	   17.6812 
    1.5030 	    8.8350 	   23.0000 	   45.0000 	   17.7162 
    1.4267 	    8.8520 	   23.0000 	   45.0000 	   17.7502 
    1.5640 	    8.8685 	   23.0000 	   45.0000 	   17.7832 
    1.5640 	    8.8840 	   23.0000 	   45.0000 	   17.8142 
    1.2589 	    8.9010 	   23.0000 	   45.0000 	   17.8482 
    1.5640 	    8.9170 	   23.0000 	   45.0000 	   17.8802 
    1.4420 	    8.9340 	   23.0000 	   45.0000 	   17.9142 
    1.4878 	    8.9495 	   23.0000 	   45.0000 	   17.9452 
    1.5335 	    8.9660 	   23.0000 	   45.0000 	   17.9782 
    1.5946 	    8.9810 	   23.0000 	   45.0000 	   18.0082 
    1.5030 	    8.9960 	   23.0000 	   45.0000 	   18.0382 
    1.5488 	    9.0110 	   23.0000 	   45.0000 	   18.0682 
    1.3657 	    9.0245 	   23.0000 	   45.0000 	   18.0952 
    1.5640 	    9.0395 	   23.0000 	   45.0000 	   18.1252 
    1.5183 	    9.0540 	   23.0000 	   45.0000 	   18.1542 
    1.4115 	    9.0700 	   23.0000 	   45.0000 	   18.1862 
    1.6098 	    9.0845 	   23.0000 	   45.0000 	   18.2152 
    1.4420 	    9.0990 	   23.0000 	   45.0000 	   18.2442 
    1.5793 	    9.1145 	   23.0000 	   45.0000 	   18.2752 
    1.5640 	    9.1295 	   23.0000 	   45.0000 	   18.3053 
    1.5946 	    9.1455 	   23.0000 	   45.0000 	   18.3373 
    1.5335 	    9.1615 	   23.0000 	   45.0000 	   18.3693 
    1.5488 	    9.1785 	   23.0000 	   45.0000 	   18.4033 
    1.5183 	    9.1965 	   23.0000 	   45.0000 	   18.4393 
    1.5488 	    9.2125 	   23.0000 	   45.0000 	   18.4713 
    1.5946 	    9.2290 	   23.0000 	   45.0000 	   18.5043 
    1.6556 	    9.2465 	   23.0000 	   45.0000 	   18.5393 
    1.6098 	    9.2640 	   23.0000 	   45.0000 	   18.5743 
    1.5793 	    9.2785 	   23.0000 	   45.0000 	   18.6033 
    1.5488 	    9.2935 	   23.0000 	   45.0000 	   18.6333 
    1.6098 	    9.3090 	   23.0000 	   45.0000 	   18.6643 
    1.6251 	    9.3245 	   23.0000 	   45.0000 	   18.6953 
    1.5946 	    9.3385 	   23.0000 	   45.0000 	   18.7233 
    1.5946 	    9.3530 	   23.0000 	   45.0000 	   18.7523 
    1.6098 	    9.3705 	   23.0000 	   45.0000 	   18.7873 
    1.5335 	    9.3860 	   23.0000 	   45.0000 	   18.8183 
    1.8082 	    9.4020 	   23.0000 	   45.0000 	   18.8503 
    1.5488 	    9.4185 	   23.0000 	   45.0000 	   18.8833 
    1.1826 	    9.4500 	   23.0000 	   45.0000 	   18.9463 
    1.4267 	    9.4660 	   23.0000 	   45.0000 	   18.9783 
    1.7014 	    9.4810 	   23.0000 	   45.0000 	   19.0083 
    1.5335 	    9.4960 	   23.0000 	   45.0000 	   19.0383 
    1.5793 	    9.5100 	   23.0000 	   45.0000 	   19.0663 
    1.7472 	    9.5245 	   23.0000 	   45.0000 	   19.0953 
    1.6556 	    9.5385 	   23.0000 	   45.0000 	   19.1233 
    1.5030 	    9.5520 	   23.0000 	   45.0000 	   19.1503 
    1.5183 	    9.5660 	   23.0000 	   45.0000 	   19.1783 
    1.6403 	    9.5795 	   23.0000 	   45.0000 	   19.2053 
    1.5640 	    9.5935 	   23.0000 	   45.0000 	   19.2333 
    1.6861 	    9.6070 	   23.0000 	   45.0000 	   19.2603 
    1.6861 	    9.6200 	   23.0000 	   45.0000 	   19.2863 
    1.6556 	    9.6380 	   23.0000 	   45.0000 	   19.3223 
    1.6709 	    9.6535 	   23.0000 	   45.0000 	   19.3533 
    1.5946 	    9.6690 	   23.0000 	   45.0000 	   19.3843 
    1.7014 	    9.6855 	   23.0000 	   45.0000 	   19.4173 
    1.5640 	    9.7015 	   23.0000 	   45.0000 	   19.4493 
    1.6556 	    9.7175 	   23.0000 	   45.0000 	   19.4813 
    1.7777 	    9.7330 	   23.0000 	   45.0000 	   19.5123 
    1.7014 	    9.7490 	   23.0000 	   45.0000 	   19.5443 
    1.5946 	    9.7665 	   23.0000 	   45.0000 	   19.5793 
    1.6098 	    9.7815 	   23.0000 	   45.0000 	   19.6093 
    1.6403 	    9.8060 	   23.0000 	   45.0000 	   19.6583 
    1.4115 	    9.8220 	   23.0000 	   45.0000 	   19.6903 
    1.6861 	    9.8400 	   23.0000 	   45.0000 	   19.7263 
    1.7166 	    9.8555 	   23.0000 	   45.0000 	   19.7573 
    1.6556 	    9.8730 	   23.0000 	   45.0000 	   19.7923 
    1.7472 	    9.8880 	   23.0000 	   45.0000 	   19.8223 
    1.7166 	    9.9400 	   23.0000 	   45.0000 	   19.9263 
    1.4725 	    9.9610 	   23.0000 	   45.0000 	   19.9683 
    1.7166 	    9.9765 	   23.0000 	   45.0000 	   19.9993 
    1.3962 	    9.9915 	   23.0000 	   45.0000 	   20.0294 
    1.6098 	   10.0055 	   23.0000 	   45.0000 	   20.0574 
    1.7166 	   10.0205 	   23.0000 	   45.0000 	   20.0874 
    1.5488 	   10.0385 	   23.0000 	   45.0000 	   20.1234 
    1.7014 	   10.0520 	   23.0000 	   45.0000 	   20.1504 
    1.6709 	   10.0665 	   23.0000 	   45.0000 	   20.1794 
    1.7624 	   10.0825 	   23.0000 	   45.0000 	   20.2114 
    1.6556 	   10.0990 	   23.0000 	   45.0000 	   20.2444 
    1.5946 	   10.1145 	   23.0000 	   45.0000 	   20.2754 
    1.5946 	   10.1310 	   23.0000 	   45.0000 	   20.3084 
    1.6861 	   10.1475 	   23.0000 	   45.0000 	   20.3414 
    1.6556 	   10.1640 	   23.0000 	   45.0000 	   20.3744 
    1.6098 	   10.1800 	   23.0000 	   45.0000 	   20.4064 
    1.3962 	   10.1970 	   23.0000 	   45.0000 	   20.4404 
    1.6556 	   10.2140 	   23.0000 	   45.0000 	   20.4744 
    1.6556 	   10.2300 	   23.0000 	   45.0000 	   20.5064 
    1.6403 	   10.2465 	   23.0000 	   45.0000 	   20.5394 
    1.4420 	   10.2625 	   23.0000 	   45.0000 	   20.5714 
    1.5488 	   10.2785 	   23.0000 	   45.0000 	   20.6034 
    1.6251 	   10.2975 	   23.0000 	   45.0000 	   20.6414 
    1.6403 	   10.3140 	   23.0000 	   45.0000 	   20.6744 
    1.6861 	   10.3315 	   23.0000 	   45.0000 	   20.7094 
    1.7166 	   10.3475 	   23.0000 	   45.0000 	   20.7414 
    1.7014 	   10.3640 	   23.0000 	   45.0000 	   20.7744 
    1.7166 	   10.3795 	   23.0000 	   45.0000 	   20.8054 
    1.8997 	   10.3970 	   23.0000 	   45.0000 	   20.8404 
    1.7777 	   10.4135 	   23.0000 	   45.0000 	   20.8734 
    1.7472 	   10.4300 	   23.0000 	   45.0000 	   20.9064 
    1.6403 	   10.4450 	   23.0000 	   45.0000 	   20.9364 
    1.7014 	   10.4615 	   23.0000 	   45.0000 	   20.9694 
    1.4572 	   10.4775 	   23.0000 	   45.0000 	   21.0014 
    1.6556 	   10.4950 	   23.0000 	   45.0000 	   21.0364 
    1.5946 	   10.5110 	   23.0000 	   45.0000 	   21.0684 
    1.7624 	   10.5285 	   23.0000 	   45.0000 	   21.1034 
    1.5946 	   10.5460 	   23.0000 	   45.0000 	   21.1384 
    1.5793 	   10.5615 	   23.0000 	   45.0000 	   21.1694 
    1.6861 	   10.5765 	   23.0000 	   45.0000 	   21.1994 
    1.5488 	   10.5905 	   23.0000 	   45.0000 	   21.2274 
    1.5793 	   10.6045 	   23.0000 	   45.0000 	   21.2554 
    1.7166 	   10.6190 	   23.0000 	   45.0000 	   21.2844 
    1.7777 	   10.6355 	   23.0000 	   45.0000 	   21.3174 
    1.7014 	   10.6500 	   23.0000 	   45.0000 	   21.3464 
    1.6709 	   10.6640 	   23.0000 	   45.0000 	   21.3744 
    1.7014 	   10.6790 	   23.0000 	   45.0000 	   21.4044 
    1.3809 	   10.6935 	   23.0000 	   45.0000 	   21.4334 
    1.7166 	   10.7080 	   23.0000 	   45.0000 	   21.4624 
    1.6709 	   10.7220 	   23.0000 	   45.0000 	   21.4904 
    1.7777 	   10.7360 	   23.0000 	   45.0000 	   21.5184 
    1.6709 	   10.7500 	   23.0000 	   45.0000 	   21.5464 
    1.7166 	   10.7645 	   23.0000 	   45.0000 	   21.5754 
    1.6556 	   10.7790 	   23.0000 	   45.0000 	   21.6044 
    1.7777 	   10.7945 	   23.0000 	   45.0000 	   21.6354 
    1.7472 	   10.8095 	   23.0000 	   45.0000 	   21.6654 
    1.7624 	   10.8235 	   23.0000 	   45.0000 	   21.6934 
    1.7166 	   10.8430 	   23.0000 	   45.0000 	   21.7324 
    1.7777 	   10.8615 	   23.0000 	   45.0000 	   21.7694 
    1.7319 	   10.8760 	   23.0000 	   45.0000 	   21.7985 
    1.9913 	   10.8900 	   23.0000 	   45.0000 	   21.8265 
    1.7777 	   10.9045 	   23.0000 	   45.0000 	   21.8555 
    1.6403 	   10.9195 	   23.0000 	   45.0000 	   21.8855 
    1.6861 	   10.9335 	   23.0000 	   45.0000 	   21.9135 
    1.6861 	   10.9500 	   23.0000 	   45.0000 	   21.9465 
    1.7014 	   10.9660 	   23.0000 	   45.0000 	   21.9785 
    1.8387 	   10.9825 	   23.0000 	   45.0000 	   22.0115 
    1.6861 	   10.9990 	   23.0000 	   45.0000 	   22.0445 
    1.6403 	   11.0150 	   23.0000 	   45.0000 	   22.0765 
    1.7777 	   11.0310 	   23.0000 	   45.0000 	   22.1085 
    1.6251 	   11.0490 	   23.0000 	   45.0000 	   22.1445 
    1.4878 	   11.0660 	   23.0000 	   45.0000 	   22.1785 
    1.7624 	   11.0830 	   23.0000 	   45.0000 	   22.2125 
    1.5946 	   11.1000 	   23.0000 	   45.0000 	   22.2465 
    1.6556 	   11.1160 	   23.0000 	   45.0000 	   22.2785 
    1.6709 	   11.1325 	   23.0000 	   45.0000 	   22.3115 
    1.7472 	   11.1490 	   23.0000 	   45.0000 	   22.3445 
    1.8082 	   11.1665 	   23.0000 	   45.0000 	   22.3795 
    1.7319 	   11.1830 	   23.0000 	   45.0000 	   22.4125 
    1.9913 	   11.2000 	   23.0000 	   45.0000 	   22.4465 
    1.7777 	   11.2165 	   23.0000 	   45.0000 	   22.4795 
    1.8082 	   11.2345 	   23.0000 	   45.0000 	   22.5155 
    1.6556 	   11.2505 	   23.0000 	   45.0000 	   22.5475 
    1.7472 	   11.2680 	   23.0000 	   45.0000 	   22.5825 
    1.6709 	   11.2860 	   23.0000 	   45.0000 	   22.6185 
    1.7472 	   11.3025 	   23.0000 	   45.0000 	   22.6515 
    1.8692 	   11.3190 	   23.0000 	   45.0000 	   22.6845 
    1.7929 	   11.3355 	   23.0000 	   45.0000 	   22.7175 
    1.7166 	   11.3525 	   23.0000 	   45.0000 	   22.7515 
    1.8692 	   11.3685 	   23.0000 	   45.0000 	   22.7835 
    1.8387 	   11.3850 	   23.0000 	   45.0000 	   22.8165 
    1.8235 	   11.4025 	   23.0000 	   45.0000 	   22.8515 
    1.7319 	   11.4195 	   23.0000 	   45.0000 	   22.8855 
    1.8082 	   11.4375 	   23.0000 	   45.0000 	   22.9205 
    1.7319 	   11.4535 	   23.0000 	   45.0000 	   22.9535 
    1.8540 	   11.4700 	   23.0000 	   45.0000 	   22.9865 
    1.7319 	   11.4865 	   23.0000 	   45.0000 	   23.0195 
    1.7166 	   11.5030 	   23.0000 	   45.0000 	   23.0525 
    1.6861 	   11.5195 	   23.0000 	   45.0000 	   23.0855 
    1.4878 	   11.5365 	   23.0000 	   45.0000 	   23.1195 
    1.7929 	   11.5525 	   23.0000 	   45.0000 	   23.1515 
    1.8692 	   11.5700 	   23.0000 	   45.0000 	   23.1865 
    1.7014 	   11.5865 	   23.0000 	   45.0000 	   23.2195 
    1.6556 	   11.6040 	   23.0000 	   45.0000 	   23.2545 
    1.7624 	   11.6210 	   23.0000 	   45.0000 	   23.2885 
    1.9608 	   11.6405 	   23.0000 	   45.0000 	   23.3275 
    1.9760 	   11.6575 	   23.0000 	   45.0000 	   23.3615 
    1.7777 	   11.6745 	   23.0000 	   45.0000 	   23.3955 
    1.5793 	   11.6915 	   23.0000 	   45.0000 	   23.4295 
    1.7929 	   11.7080 	   23.0000 	   45.0000 	   23.4625 
    1.8387 	   11.7255 	   23.0000 	   45.0000 	   23.4975 
    1.7624 	   11.7425 	   23.0000 	   45.0000 	   23.5315 
    1.9150 	   11.7585 	   23.0000 	   45.0000 	   23.5636 
    1.8387 	   11.7755 	   23.0000 	   45.0000 	   23.5976 
    1.9303 	   11.7905 	   23.0000 	   45.0000 	   23.6276 
    1.7166 	   11.8080 	   23.0000 	   45.0000 	   23.6626 
    1.8540 	   11.8235 	   23.0000 	   45.0000 	   23.6936 
    1.7624 	   11.8415 	   23.0000 	   45.0000 	   23.7296 
    1.8082 	   11.8590 	   23.0000 	   45.0000 	   23.7646 
    1.7929 	   11.8755 	   23.0000 	   45.0000 	   23.7976 
    1.8540 	   11.8935 	   23.0000 	   45.0000 	   23.8336 
    1.7777 	   11.9095 	   23.0000 	   45.0000 	   23.8656 
    1.8235 	   11.9255 	   23.0000 	   45.0000 	   23.8976 
    1.8692 	   11.9420 	   23.0000 	   45.0000 	   23.9306 
    1.9150 	   11.9585 	   23.0000 	   45.0000 	   23.9636 
    1.7624 	   11.9750 	   23.0000 	   45.0000 	   23.9966 
    1.8387 	   11.9925 	   23.0000 	   45.0000 	   24.0316 
    2.0523 	   12.0095 	   23.0000 	   45.0000 	   24.0646 
    1.8997 	   12.0255 	   23.0000 	   45.0000 	   24.0976 
    1.8082 	   12.0580 	   23.0000 	   45.0000 	   24.1626 
    1.8387 	   12.0740 	   23.0000 	   45.0000 	   24.1946 
    1.8235 	   12.0900 	   23.0000 	   45.0000 	   24.2266 
    1.9913 	   12.1055 	   23.0000 	   45.0000 	   24.2576 
    1.8997 	   12.1220 	   23.0000 	   45.0000 	   24.2906 
    1.8082 	   12.1400 	   23.0000 	   45.0000 	   24.3266 
    1.8235 	   12.1570 	   23.0000 	   45.0000 	   24.3606 
    1.7472 	   12.1730 	   23.0000 	   45.0000 	   24.3926 
    1.9455 	   12.1900 	   23.0000 	   45.0000 	   24.4266 
    1.8235 	   12.2065 	   23.0000 	   45.0000 	   24.4596 
    1.8540 	   12.2240 	   23.0000 	   45.0000 	   24.4946 
    1.6251 	   12.2430 	   23.0000 	   45.0000 	   24.5326 
    1.8387 	   12.2600 	   23.0000 	   45.0000 	   24.5666 
    1.8997 	   12.2770 	   23.0000 	   45.0000 	   24.6006 
    1.8540 	   12.2930 	   23.0000 	   45.0000 	   24.6326 
    1.7929 	   12.3110 	   23.0000 	   45.0000 	   24.6686 
    1.7319 	   12.3275 	   23.0000 	   45.0000 	   24.7016 
    1.9608 	   12.3450 	   23.0000 	   45.0000 	   24.7366 
    1.9608 	   12.3610 	   23.0000 	   45.0000 	   24.7686 
    1.9455 	   12.3770 	   23.0000 	   45.0000 	   24.8006 
    1.8997 	   12.3930 	   23.0000 	   45.0000 	   24.8326 
    1.9608 	   12.4110 	   23.0000 	   45.0000 	   24.8686 
    1.8387 	   12.4275 	   23.0000 	   45.0000 	   24.9016 
    1.8997 	   12.4470 	   23.0000 	   45.0000 	   24.9406 
    1.8235 	   12.4645 	   23.0000 	   45.0000 	   24.9756 
    1.7929 	   12.4815 	   23.0000 	   45.0000 	   25.0096 
    1.8387 	   12.4985 	   23.0000 	   45.0000 	   25.0436 
    1.9150 	   12.5140 	   23.0000 	   45.0000 	   25.0746 
    1.8387 	   12.5320 	   23.0000 	   45.0000 	   25.1106 
    1.8387 	   12.5500 	   23.0000 	   45.0000 	   25.1466 
    1.8845 	   12.5665 	   23.0000 	   45.0000 	   25.1796 
    1.7929 	   12.5840 	   23.0000 	   45.0000 	   25.2136 
    1.8540 	   12.6005 	   23.0000 	   45.0000 	   25.2476 
    1.8387 	   12.6175 	   23.0000 	   45.0000 	   25.2817 
    1.8845 	   12.6345 	   23.0000 	   45.0000 	   25.3157 
    1.9150 	   12.6510 	   23.0000 	   45.0000 	   25.3487 
    1.9913 	   12.6675 	   23.0000 	   45.0000 	   25.3817 
    1.8692 	   12.6845 	   23.0000 	   45.0000 	   25.4157 
    1.7929 	   12.7015 	   23.0000 	   45.0000 	   25.4497 
    1.8387 	   12.7185 	   23.0000 	   45.0000 	   25.4837 
    1.9913 	   12.7350 	   23.0000 	   45.0000 	   25.5167 
    1.8540 	   12.7525 	   23.0000 	   45.0000 	   25.5517 
    1.8692 	   12.7695 	   23.0000 	   45.0000 	   25.5857 
    2.1897 	   12.7885 	   23.0000 	   45.0000 	   25.6237 
    1.9455 	   12.8055 	   23.0000 	   45.0000 	   25.6577 
    1.8845 	   12.8230 	   23.0000 	   45.0000 	   25.6927 
    2.1286 	   12.8400 	   23.0000 	   45.0000 	   25.7267 
    1.7624 	   12.8570 	   23.0000 	   45.0000 	   25.7607 
    1.7929 	   12.8730 	   23.0000 	   45.0000 	   25.7927 
    2.0066 	   12.8880 	   23.0000 	   45.0000 	   25.8227 
    2.0829 	   12.9030 	   23.0000 	   45.0000 	   25.8527 
    2.0829 	   12.9180 	   23.0000 	   45.0000 	   25.8827 
    1.9608 	   12.9325 	   23.0000 	   45.0000 	   25.9117 
    1.9455 	   12.9470 	   23.0000 	   45.0000 	   25.9407 
    1.8997 	   12.9620 	   23.0000 	   45.0000 	   25.9707 
    1.9455 	   12.9765 	   23.0000 	   45.0000 	   25.9997 
    1.9455 	   12.9915 	   23.0000 	   45.0000 	   26.0297 
    1.6556 	   13.0065 	   23.0000 	   45.0000 	   26.0597 
    1.9303 	   13.0230 	   23.0000 	   45.0000 	   26.0927 
    1.9455 	   13.0405 	   23.0000 	   45.0000 	   26.1277 
    1.8387 	   13.0580 	   23.0000 	   45.0000 	   26.1627 
    1.8845 	   13.0750 	   23.0000 	   45.0000 	   26.1967 
    1.9303 	   13.0915 	   23.0000 	   45.0000 	   26.2297 
    1.6709 	   13.1085 	   23.0000 	   45.0000 	   26.2637 
    1.9303 	   13.1255 	   23.0000 	   45.0000 	   26.2977 
    1.8540 	   13.1420 	   23.0000 	   45.0000 	   26.3307 
    1.8235 	   13.1585 	   23.0000 	   45.0000 	   26.3637 
    2.0523 	   13.1750 	   23.0000 	   45.0000 	   26.3967 
    1.9455 	   13.1920 	   23.0000 	   45.0000 	   26.4307 
    1.9150 	   13.2085 	   23.0000 	   45.0000 	   26.4637 
    1.8845 	   13.2255 	   23.0000 	   45.0000 	   26.4977 
    1.9150 	   13.2425 	   23.0000 	   45.0000 	   26.5317 
    2.0218 	   13.2585 	   23.0000 	   45.0000 	   26.5637 
    2.0218 	   13.2750 	   23.0000 	   45.0000 	   26.5967 
    1.7014 	   13.2935 	   23.0000 	   45.0000 	   26.6337 
    1.8692 	   13.3105 	   23.0000 	   45.0000 	   26.6677 
    1.8692 	   13.3285 	   23.0000 	   45.0000 	   26.7037 
    1.8692 	   13.3455 	   23.0000 	   45.0000 	   26.7377 
    2.0066 	   13.3630 	   23.0000 	   45.0000 	   26.7727 
    1.9455 	   13.3805 	   23.0000 	   45.0000 	   26.8077 
    1.9303 	   13.3975 	   23.0000 	   45.0000 	   26.8417 
    2.0523 	   13.4140 	   23.0000 	   45.0000 	   26.8747 
    1.9455 	   13.4300 	   23.0000 	   45.0000 	   26.9067 
    1.9303 	   13.4460 	   23.0000 	   45.0000 	   26.9387 
    1.8692 	   13.4635 	   23.0000 	   45.0000 	   26.9737 
    2.0676 	   13.4805 	   23.0000 	   45.0000 	   27.0077 
    2.0371 	   13.4965 	   23.0000 	   45.0000 	   27.0398 
    2.0676 	   13.5135 	   23.0000 	   45.0000 	   27.0738 
    2.0066 	   13.5305 	   23.0000 	   45.0000 	   27.1078 
    1.8845 	   13.5495 	   23.0000 	   45.0000 	   27.1458 
    1.9760 	   13.5660 	   23.0000 	   45.0000 	   27.1788 
    1.9913 	   13.5820 	   23.0000 	   45.0000 	   27.2108 
    1.9455 	   13.5985 	   23.0000 	   45.0000 	   27.2438 
    2.0218 	   13.6160 	   23.0000 	   45.0000 	   27.2788 
    2.0523 	   13.6335 	   23.0000 	   45.0000 	   27.3138 
    2.0676 	   13.6500 	   23.0000 	   45.0000 	   27.3468 
    1.9303 	   13.6665 	   23.0000 	   45.0000 	   27.3798 
    2.0676 	   13.6835 	   23.0000 	   45.0000 	   27.4138 
    2.1592 	   13.7015 	   23.0000 	   45.0000 	   27.4498 
    1.9150 	   13.7180 	   23.0000 	   45.0000 	   27.4828 
    1.8235 	   13.7345 	   23.0000 	   45.0000 	   27.5158 
    2.1134 	   13.7515 	   23.0000 	   45.0000 	   27.5498 
    2.0218 	   13.7685 	   23.0000 	   45.0000 	   27.5838 
    1.9913 	   13.7885 	   23.0000 	   45.0000 	   27.6238 
    1.9913 	   13.8055 	   23.0000 	   45.0000 	   27.6578 
    2.0523 	   13.8220 	   23.0000 	   45.0000 	   27.6908 
    2.0676 	   13.8390 	   23.0000 	   45.0000 	   27.7248 
    1.9455 	   13.8560 	   23.0000 	   45.0000 	   27.7588 
    1.8845 	   13.8730 	   23.0000 	   45.0000 	   27.7928 
    2.0218 	   13.8895 	   23.0000 	   45.0000 	   27.8258 
    2.0066 	   13.9070 	   23.0000 	   45.0000 	   27.8608 
    2.0981 	   13.9240 	   23.0000 	   45.0000 	   27.8948 
    1.9608 	   13.9410 	   23.0000 	   45.0000 	   27.9288 
    1.9608 	   13.9590 	   23.0000 	   45.0000 	   27.9648 
    1.9608 	   13.9750 	   23.0000 	   45.0000 	   27.9968 
    1.9303 	   13.9920 	   23.0000 	   45.0000 	   28.0308 
    1.7777 	   14.0090 	   23.0000 	   45.0000 	   28.0648 
    2.1286 	   14.0260 	   23.0000 	   45.0000 	   28.0988 
    2.0371 	   14.0445 	   23.0000 	   45.0000 	   28.1358 
    2.0676 	   14.0620 	   23.0000 	   45.0000 	   28.1708 
    2.0523 	   14.0790 	   23.0000 	   45.0000 	   28.2048 
    2.0829 	   14.0965 	   23.0000 	   45.0000 	   28.2388 
    2.1897 	   14.1125 	   23.0000 	   45.0000 	   28.2718 
    1.9913 	   14.1300 	   23.0000 	   45.0000 	   28.3068 
    2.1592 	   14.1470 	   23.0000 	   45.0000 	   28.3408 
    2.0371 	   14.1635 	   23.0000 	   45.0000 	   28.3738 
    1.8540 	   14.1805 	   23.0000 	   45.0000 	   28.4078 
    1.8387 	   14.1970 	   23.0000 	   45.0000 	   28.4408 
    2.0523 	   14.2140 	   23.0000 	   45.0000 	   28.4748 
    2.0676 	   14.2315 	   23.0000 	   45.0000 	   28.5098 
    1.8540 	   14.2485 	   23.0000 	   45.0000 	   28.5438 
    2.1592 	   14.2650 	   23.0000 	   45.0000 	   28.5768 
    1.7166 	   14.2815 	   23.0000 	   45.0000 	   28.6098 
    2.1897 	   14.3000 	   23.0000 	   45.0000 	   28.6468 
    2.0371 	   14.3170 	   23.0000 	   45.0000 	   28.6808 
    2.1286 	   14.3335 	   23.0000 	   45.0000 	   28.7138 
    2.0829 	   14.3505 	   23.0000 	   45.0000 	   28.7478 
    2.1744 	   14.3665 	   23.0000 	   45.0000 	   28.7799 
    2.0829 	   14.3835 	   23.0000 	   45.0000 	   28.8139 
    2.1744 	   14.4015 	   23.0000 	   45.0000 	   28.8499 
    2.1439 	   14.4180 	   23.0000 	   45.0000 	   28.8829 
    2.0218 	   14.4355 	   23.0000 	   45.0000 	   28.9179 
    2.1592 	   14.4525 	   23.0000 	   45.0000 	   28.9519 
    1.9760 	   14.4695 	   23.0000 	   45.0000 	   28.9859 
    2.1286 	   14.4865 	   23.0000 	   45.0000 	   29.0199 
    1.9760 	   14.5045 	   23.0000 	   45.0000 	   29.0559 
    2.2049 	   14.5215 	   23.0000 	   45.0000 	   29.0899 
    2.2049 	   14.5405 	   23.0000 	   45.0000 	   29.1279 
    2.0676 	   14.5600 	   23.0000 	   45.0000 	   29.1669 
    1.7319 	   14.5760 	   23.0000 	   45.0000 	   29.1989 
    1.9760 	   14.5925 	   23.0000 	   45.0000 	   29.2319 
    1.7624 	   14.6105 	   23.0000 	   45.0000 	   29.2679 
    2.0829 	   14.6280 	   23.0000 	   45.0000 	   29.3029 
    2.1134 	   14.6450 	   23.0000 	   45.0000 	   29.3369 
    1.9608 	   14.6630 	   23.0000 	   45.0000 	   29.3729 
    2.0218 	   14.6810 	   23.0000 	   45.0000 	   29.4089 
    2.1744 	   14.6975 	   23.0000 	   45.0000 	   29.4419 
    2.0371 	   14.7155 	   23.0000 	   45.0000 	   29.4779 
    2.0523 	   14.7325 	   23.0000 	   45.0000 	   29.5119 
    1.9150 	   14.7485 	   23.0000 	   45.0000 	   29.5439 
    2.0981 	   14.7660 	   23.0000 	   45.0000 	   29.5789 
    2.0523 	   14.7820 	   23.0000 	   45.0000 	   29.6109 
    2.1592 	   14.8020 	   23.0000 	   45.0000 	   29.6509 
    2.0981 	   14.8180 	   23.0000 	   45.0000 	   29.6829 
    2.1592 	   14.8345 	   23.0000 	   45.0000 	   29.7159 
    2.0829 	   14.8510 	   23.0000 	   45.0000 	   29.7489 
    2.2202 	   14.8680 	   23.0000 	   45.0000 	   29.7829 
    2.0981 	   14.8855 	   23.0000 	   45.0000 	   29.8179 
    2.1134 	   14.9025 	   23.0000 	   45.0000 	   29.8519 
    2.1439 	   14.9190 	   23.0000 	   45.0000 	   29.8849 
    2.0523 	   14.9375 	   23.0000 	   45.0000 	   29.9219 
    2.1439 	   14.9555 	   23.0000 	   45.0000 	   29.9579 
    2.1439 	   14.9725 	   23.0000 	   45.0000 	   29.9919 
    2.0829 	   14.9895 	   23.0000 	   45.0000 	   30.0259 
    2.1439 	   15.0070 	   23.0000 	   45.0000 	   30.0609 
    2.0829 	   15.0245 	   23.0000 	   45.0000 	   30.0959 
    2.0371 	   15.0430 	   23.0000 	   45.0000 	   30.1329 
    2.2202 	   15.0600 	   23.0000 	   45.0000 	   30.1669 
    2.0218 	   15.0765 	   23.0000 	   45.0000 	   30.1999 
    2.0676 	   15.0940 	   23.0000 	   45.0000 	   30.2349 
    2.1439 	   15.1110 	   23.0000 	   45.0000 	   30.2689 
    2.0829 	   15.1280 	   23.0000 	   45.0000 	   30.3029 
    2.1897 	   15.1450 	   23.0000 	   45.0000 	   30.3369 
    2.2049 	   15.1625 	   23.0000 	   45.0000 	   30.3719 
    2.0829 	   15.1810 	   23.0000 	   45.0000 	   30.4089 
    2.2354 	   15.1985 	   23.0000 	   45.0000 	   30.4439 
    2.2507 	   15.2150 	   23.0000 	   45.0000 	   30.4769 
    2.0829 	   15.2320 	   23.0000 	   45.0000 	   30.5109 
    2.1592 	   15.2490 	   23.0000 	   45.0000 	   30.5450 
    2.1744 	   15.2670 	   23.0000 	   45.0000 	   30.5810 
    2.2507 	   15.2835 	   23.0000 	   45.0000 	   30.6140 
    2.2812 	   15.3010 	   23.0000 	   45.0000 	   30.6490 
    2.1744 	   15.3180 	   23.0000 	   45.0000 	   30.6830 
    2.1134 	   15.3355 	   23.0000 	   45.0000 	   30.7180 
    2.1439 	   15.3525 	   23.0000 	   45.0000 	   30.7520 
    2.2660 	   15.3700 	   23.0000 	   45.0000 	   30.7870 
    1.8387 	   15.3865 	   23.0000 	   45.0000 	   30.8200 
    2.0371 	   15.4045 	   23.0000 	   45.0000 	   30.8560 
    2.1439 	   15.4215 	   23.0000 	   45.0000 	   30.8900 
    2.3270 	   15.4390 	   23.0000 	   45.0000 	   30.9250 
    2.1897 	   15.4575 	   23.0000 	   45.0000 	   30.9620 
    2.2507 	   15.4755 	   23.0000 	   45.0000 	   30.9980 
    2.1134 	   15.4930 	   23.0000 	   45.0000 	   31.0330 
    2.1134 	   15.5115 	   23.0000 	   45.0000 	   31.0700 
    2.1286 	   15.5290 	   23.0000 	   45.0000 	   31.1050 
    2.2660 	   15.5475 	   23.0000 	   45.0000 	   31.1420 
    2.2660 	   15.5655 	   23.0000 	   45.0000 	   31.1780 
    2.2049 	   15.5835 	   23.0000 	   45.0000 	   31.2140 
    2.3270 	   15.6005 	   23.0000 	   45.0000 	   31.2480 
    2.1286 	   15.6165 	   23.0000 	   45.0000 	   31.2800 
    2.1897 	   15.6335 	   23.0000 	   45.0000 	   31.3140 
    2.0981 	   15.6505 	   23.0000 	   45.0000 	   31.3480 
    2.1897 	   15.6675 	   23.0000 	   45.0000 	   31.3820 
    2.2354 	   15.6845 	   23.0000 	   45.0000 	   31.4160 
    2.2202 	   15.7020 	   23.0000 	   45.0000 	   31.4510 
    2.1897 	   15.7180 	   23.0000 	   45.0000 	   31.4830 
    2.2965 	   15.7355 	   23.0000 	   45.0000 	   31.5180 
    2.2507 	   15.7525 	   23.0000 	   45.0000 	   31.5520 
    2.3270 	   15.7695 	   23.0000 	   45.0000 	   31.5860 
    2.1286 	   15.7865 	   23.0000 	   45.0000 	   31.6200 
    2.1286 	   15.8035 	   23.0000 	   45.0000 	   31.6540 
    2.1286 	   15.8205 	   23.0000 	   45.0000 	   31.6880 
    2.2049 	   15.8370 	   23.0000 	   45.0000 	   31.7210 
    2.2812 	   15.8540 	   23.0000 	   45.0000 	   31.7550 
    2.2354 	   15.8715 	   23.0000 	   45.0000 	   31.7900 
    2.2812 	   15.8885 	   23.0000 	   45.0000 	   31.8240 
    2.1744 	   15.9050 	   23.0000 	   45.0000 	   31.8570 
    2.0676 	   15.9220 	   23.0000 	   45.0000 	   31.8910 
    2.2354 	   15.9385 	   23.0000 	   45.0000 	   31.9240 
    2.2202 	   15.9545 	   23.0000 	   45.0000 	   31.9560 
    2.4796 	   15.9720 	   23.0000 	   45.0000 	   31.9910 
    2.2049 	   15.9895 	   23.0000 	   45.0000 	   32.0260 
    2.2507 	   16.0075 	   23.0000 	   45.0000 	   32.0620 
    2.3117 	   16.0250 	   23.0000 	   45.0000 	   32.0970 
    2.2812 	   16.0445 	   23.0000 	   45.0000 	   32.1360 
    2.2202 	   16.0615 	   23.0000 	   45.0000 	   32.1700 
    2.2507 	   16.0785 	   23.0000 	   45.0000 	   32.2040 
    2.1897 	   16.0955 	   23.0000 	   45.0000 	   32.2380 
    2.1744 	   16.1135 	   23.0000 	   45.0000 	   32.2740 
    2.2660 	   16.1300 	   23.0000 	   45.0000 	   32.3071 
    2.2049 	   16.1480 	   23.0000 	   45.0000 	   32.3431 
    2.1744 	   16.1655 	   23.0000 	   45.0000 	   32.3781 
    2.1286 	   16.1835 	   23.0000 	   45.0000 	   32.4141 
    2.1286 	   16.2005 	   23.0000 	   45.0000 	   32.4481 
    2.4338 	   16.2165 	   23.0000 	   45.0000 	   32.4801 
    2.4033 	   16.2340 	   23.0000 	   45.0000 	   32.5151 
    2.2660 	   16.2505 	   23.0000 	   45.0000 	   32.5481 
    2.3117 	   16.2675 	   23.0000 	   45.0000 	   32.5821 
    2.2049 	   16.2850 	   23.0000 	   45.0000 	   32.6171 
    2.3117 	   16.3035 	   23.0000 	   45.0000 	   32.6541 
    2.0981 	   16.3210 	   23.0000 	   45.0000 	   32.6891 
    2.2049 	   16.3395 	   23.0000 	   45.0000 	   32.7261 
    2.2049 	   16.3570 	   23.0000 	   45.0000 	   32.7611 
    2.2049 	   16.3730 	   23.0000 	   45.0000 	   32.7931 
    2.3423 	   16.3900 	   23.0000 	   45.0000 	   32.8271 
    2.1286 	   16.4085 	   23.0000 	   45.0000 	   32.8641 
    2.4338 	   16.4255 	   23.0000 	   45.0000 	   32.8981 
    2.2660 	   16.4430 	   23.0000 	   45.0000 	   32.9331 
    2.2354 	   16.4600 	   23.0000 	   45.0000 	   32.9671 
    2.2202 	   16.4780 	   23.0000 	   45.0000 	   33.0031 
    2.2660 	   16.4960 	   23.0000 	   45.0000 	   33.0381 
    2.2202 	   16.5135 	   23.0000 	   45.0000 	   33.0731 
    2.2965 	   16.5325 	   23.0000 	   45.0000 	   33.1111 
    2.1744 	   16.5505 	   23.0000 	   45.0000 	   33.1471 
    2.2049 	   16.5675 	   23.0000 	   45.0000 	   33.1811 
    2.1439 	   16.5860 	   23.0000 	   45.0000 	   33.2181 
    2.2812 	   16.6035 	   23.0000 	   45.0000 	   33.2531 
    2.2965 	   16.6195 	   23.0000 	   45.0000 	   33.2851 
    2.2354 	   16.6360 	   23.0000 	   45.0000 	   33.3181 
    2.0523 	   16.6535 	   23.0000 	   45.0000 	   33.3531 
    2.1897 	   16.6705 	   23.0000 	   45.0000 	   33.3871 
    2.2354 	   16.6870 	   23.0000 	   45.0000 	   33.4201 
    2.2354 	   16.7045 	   23.0000 	   45.0000 	   33.4551 
    2.2507 	   16.7225 	   23.0000 	   45.0000 	   33.4911 
    2.2965 	   16.7400 	   23.0000 	   45.0000 	   33.5261 
    2.2507 	   16.7580 	   23.0000 	   45.0000 	   33.5621 
    2.2507 	   16.7765 	   23.0000 	   45.0000 	   33.5991 
    2.3880 	   16.7925 	   23.0000 	   45.0000 	   33.6311 
    2.2507 	   16.8090 	   23.0000 	   45.0000 	   33.6641 
    2.1744 	   16.8255 	   23.0000 	   45.0000 	   33.6971 
    2.4491 	   16.8430 	   23.0000 	   45.0000 	   33.7321 
    2.4033 	   16.8600 	   23.0000 	   45.0000 	   33.7661 
    2.3270 	   16.8775 	   23.0000 	   45.0000 	   33.8011 
    2.3575 	   16.8940 	   23.0000 	   45.0000 	   33.8341 
    2.3117 	   16.9115 	   23.0000 	   45.0000 	   33.8691 
    1.9913 	   16.9280 	   23.0000 	   45.0000 	   33.9021 
    2.3728 	   16.9430 	   23.0000 	   45.0000 	   33.9321 
    2.4491 	   16.9585 	   23.0000 	   45.0000 	   33.9631 
    2.2660 	   16.9740 	   23.0000 	   45.0000 	   33.9941 
    2.2354 	   16.9905 	   23.0000 	   45.0000 	   34.0271 
    2.2660 	   17.0080 	   23.0000 	   45.0000 	   34.0612 
    2.2965 	   17.0230 	   23.0000 	   45.0000 	   34.0922 
    2.4033 	   17.0400 	   23.0000 	   45.0000 	   34.1262 
    2.3575 	   17.0550 	   23.0000 	   45.0000 	   34.1562 
    2.2965 	   17.0710 	   23.0000 	   45.0000 	   34.1882 
    2.2660 	   17.0860 	   23.0000 	   45.0000 	   34.2182 
    2.4033 	   17.1015 	   23.0000 	   45.0000 	   34.2492 
    2.2202 	   17.1170 	   23.0000 	   45.0000 	   34.2802 
    2.1897 	   17.1330 	   23.0000 	   45.0000 	   34.3122 
    2.3575 	   17.1480 	   23.0000 	   45.0000 	   34.3422 
    2.2812 	   17.1635 	   23.0000 	   45.0000 	   34.3732 
    2.2049 	   17.1790 	   23.0000 	   45.0000 	   34.4042 
    2.2049 	   17.1940 	   23.0000 	   45.0000 	   34.4342 
    2.3880 	   17.2095 	   23.0000 	   45.0000 	   34.4652 
    2.3117 	   17.2250 	   23.0000 	   45.0000 	   34.4962 
    2.3575 	   17.2405 	   23.0000 	   45.0000 	   34.5272 
    2.4033 	   17.2560 	   23.0000 	   45.0000 	   34.5572 
    2.3423 	   17.2710 	   23.0000 	   45.0000 	   34.5882 
    2.2507 	   17.2860 	   23.0000 	   45.0000 	   34.6182 
    2.4033 	   17.3025 	   23.0000 	   45.0000 	   34.6512 
    2.3117 	   17.3185 	   23.0000 	   45.0000 	   34.6832 
    2.3880 	   17.3335 	   23.0000 	   45.0000 	   34.7132 
    2.4033 	   17.3505 	   23.0000 	   45.0000 	   34.7472 
    2.2202 	   17.3680 	   23.0000 	   45.0000 	   34.7822 
    2.1897 	   17.3855 	   23.0000 	   45.0000 	   34.8172 
    2.3728 	   17.4025 	   23.0000 	   45.0000 	   34.8512 
    2.2660 	   17.4205 	   23.0000 	   45.0000 	   34.8872 
    2.4033 	   17.4370 	   23.0000 	   45.0000 	   34.9202 
    2.3117 	   17.4545 	   23.0000 	   45.0000 	   34.9552 
    2.4796 	   17.4720 	   23.0000 	   45.0000 	   34.9902 
    2.4186 	   17.4900 	   23.0000 	   45.0000 	   35.0262 
    2.4033 	   17.5065 	   23.0000 	   45.0000 	   35.0592 
    2.4033 	   17.5230 	   23.0000 	   45.0000 	   35.0922 
    2.0523 	   17.5420 	   23.0000 	   45.0000 	   35.1302 
    2.3423 	   17.5595 	   23.0000 	   45.0000 	   35.1652 
    2.2965 	   17.5765 	   23.0000 	   45.0000 	   35.1992 
    2.4186 	   17.5935 	   23.0000 	   45.0000 	   35.2332 
    2.3423 	   17.6105 	   23.0000 	   45.0000 	   35.2672 
    2.3575 	   17.6275 	   23.0000 	   45.0000 	   35.3012 
    2.5101 	   17.6450 	   23.0000 	   45.0000 	   35.3362 
    2.4948 	   17.6625 	   23.0000 	   45.0000 	   35.3712 
    2.3423 	   17.6810 	   23.0000 	   45.0000 	   35.4082 
    2.4186 	   17.6985 	   23.0000 	   45.0000 	   35.4432 
    2.4796 	   17.7155 	   23.0000 	   45.0000 	   35.4772 
    2.2660 	   17.7320 	   23.0000 	   45.0000 	   35.5102 
    2.3880 	   17.7495 	   23.0000 	   45.0000 	   35.5452 
    2.3270 	   17.7670 	   23.0000 	   45.0000 	   35.5802 
    2.3270 	   17.7840 	   23.0000 	   45.0000 	   35.6142 
    2.4643 	   17.8020 	   23.0000 	   45.0000 	   35.6502 
    2.4186 	   17.8190 	   23.0000 	   45.0000 	   35.6842 
    2.3728 	   17.8365 	   23.0000 	   45.0000 	   35.7192 
    2.4186 	   17.8540 	   23.0000 	   45.0000 	   35.7542 
    2.3728 	   17.8720 	   23.0000 	   45.0000 	   35.7903 
    2.5101 	   17.8895 	   23.0000 	   45.0000 	   35.8253 
    2.3117 	   17.9075 	   23.0000 	   45.0000 	   35.8613 
    2.3728 	   17.9245 	   23.0000 	   45.0000 	   35.8953 
    2.2660 	   17.9420 	   23.0000 	   45.0000 	   35.9303 
    2.3880 	   17.9595 	   23.0000 	   45.0000 	   35.9653 
    2.3880 	   17.9755 	   23.0000 	   45.0000 	   35.9973 
    2.3880 	   17.9925 	   23.0000 	   45.0000 	   36.0313 
    2.5864 	   18.0110 	   23.0000 	   45.0000 	   36.0683 
    2.4491 	   18.0280 	   23.0000 	   45.0000 	   36.1023 
    2.5254 	   18.0465 	   23.0000 	   45.0000 	   36.1393 
    2.4491 	   18.0640 	   23.0000 	   45.0000 	   36.1743 
    2.3423 	   18.0815 	   23.0000 	   45.0000 	   36.2093 
    2.3423 	   18.0990 	   23.0000 	   45.0000 	   36.2443 
    2.5406 	   18.1160 	   23.0000 	   45.0000 	   36.2783 
    2.3728 	   18.1340 	   23.0000 	   45.0000 	   36.3143 
    2.2660 	   18.1520 	   23.0000 	   45.0000 	   36.3503 
    2.2354 	   18.1705 	   23.0000 	   45.0000 	   36.3873 
    2.3880 	   18.1875 	   23.0000 	   45.0000 	   36.4213 
    2.3728 	   18.2060 	   23.0000 	   45.0000 	   36.4583 
    2.3880 	   18.2230 	   23.0000 	   45.0000 	   36.4923 
    2.3880 	   18.2405 	   23.0000 	   45.0000 	   36.5273 
    2.3575 	   18.2575 	   23.0000 	   45.0000 	   36.5613 
    2.5101 	   18.2745 	   23.0000 	   45.0000 	   36.5953 
    2.4643 	   18.2920 	   23.0000 	   45.0000 	   36.6303 
    2.2507 	   18.3095 	   23.0000 	   45.0000 	   36.6653 
    2.4186 	   18.3270 	   23.0000 	   45.0000 	   36.7003 
    2.3728 	   18.3445 	   23.0000 	   45.0000 	   36.7353 
    2.5559 	   18.3615 	   23.0000 	   45.0000 	   36.7693 
    2.4796 	   18.3790 	   23.0000 	   45.0000 	   36.8043 
    2.4491 	   18.3970 	   23.0000 	   45.0000 	   36.8403 
    2.5559 	   18.4150 	   23.0000 	   45.0000 	   36.8763 
    2.4948 	   18.4330 	   23.0000 	   45.0000 	   36.9123 
    2.4033 	   18.4510 	   23.0000 	   45.0000 	   36.9483 
    2.4186 	   18.4690 	   23.0000 	   45.0000 	   36.9843 
    2.5406 	   18.4870 	   23.0000 	   45.0000 	   37.0203 
    2.6017 	   18.5055 	   23.0000 	   45.0000 	   37.0573 
    2.1897 	   18.5230 	   23.0000 	   45.0000 	   37.0923 
    2.6474 	   18.5580 	   23.0000 	   45.0000 	   37.1623 
    2.1592 	   18.5755 	   23.0000 	   45.0000 	   37.1973 
    2.5254 	   18.5925 	   23.0000 	   45.0000 	   37.2313 
    2.4948 	   18.6095 	   23.0000 	   45.0000 	   37.2653 
    2.5254 	   18.6275 	   23.0000 	   45.0000 	   37.3013 
    2.1897 	   18.6450 	   23.0000 	   45.0000 	   37.3363 
    2.6017 	   18.6620 	   23.0000 	   45.0000 	   37.3703 
    2.5406 	   18.6800 	   23.0000 	   45.0000 	   37.4063 
    2.3880 	   18.6990 	   23.0000 	   45.0000 	   37.4443 
    2.4338 	   18.7160 	   23.0000 	   45.0000 	   37.4783 
    2.3575 	   18.7340 	   23.0000 	   45.0000 	   37.5144 
    2.5406 	   18.7510 	   23.0000 	   45.0000 	   37.5484 
    2.4948 	   18.7685 	   23.0000 	   45.0000 	   37.5834 
    2.6017 	   18.7885 	   23.0000 	   45.0000 	   37.6234 
    2.4948 	   18.8055 	   23.0000 	   45.0000 	   37.6574 
    2.5864 	   18.8240 	   23.0000 	   45.0000 	   37.6944 
    2.3880 	   18.8420 	   23.0000 	   45.0000 	   37.7304 
    2.0981 	   18.8595 	   23.0000 	   45.0000 	   37.7654 
    2.3880 	   18.8770 	   23.0000 	   45.0000 	   37.8004 
    2.3728 	   18.8930 	   23.0000 	   45.0000 	   37.8324 
    2.5101 	   18.9090 	   23.0000 	   45.0000 	   37.8644 
    2.4796 	   18.9250 	   23.0000 	   45.0000 	   37.8964 
    2.4643 	   18.9425 	   23.0000 	   45.0000 	   37.9314 
    2.4186 	   18.9595 	   23.0000 	   45.0000 	   37.9654 
    2.4491 	   18.9775 	   23.0000 	   45.0000 	   38.0014 
    2.5864 	   18.9950 	   23.0000 	   45.0000 	   38.0364 
    2.5254 	   19.0130 	   23.0000 	   45.0000 	   38.0724 
    2.4948 	   19.0310 	   23.0000 	   45.0000 	   38.1084 
    2.4186 	   19.0520 	   23.0000 	   45.0000 	   38.1504 
    2.5406 	   19.0700 	   23.0000 	   45.0000 	   38.1864 
    2.5559 	   19.0875 	   23.0000 	   45.0000 	   38.2214 
    2.5864 	   19.1050 	   23.0000 	   45.0000 	   38.2564 
    2.5559 	   19.1225 	   23.0000 	   45.0000 	   38.2914 
    2.4643 	   19.1405 	   23.0000 	   45.0000 	   38.3274 
    2.4948 	   19.1585 	   23.0000 	   45.0000 	   38.3634 
    2.4948 	   19.1765 	   23.0000 	   45.0000 	   38.3994 
    2.5254 	   19.1940 	   23.0000 	   45.0000 	   38.4344 
    2.4643 	   19.2120 	   23.0000 	   45.0000 	   38.4704 
    2.5254 	   19.2290 	   23.0000 	   45.0000 	   38.5044 
    2.5406 	   19.2470 	   23.0000 	   45.0000 	   38.5404 
    2.6017 	   19.2645 	   23.0000 	   45.0000 	   38.5754 
    2.4948 	   19.2815 	   23.0000 	   45.0000 	   38.6094 
    2.4796 	   19.3000 	   23.0000 	   45.0000 	   38.6464 
    2.4033 	   19.3170 	   23.0000 	   45.0000 	   38.6804 
    2.5711 	   19.3355 	   23.0000 	   45.0000 	   38.7174 
    2.5711 	   19.3535 	   23.0000 	   45.0000 	   38.7534 
    2.5711 	   19.3705 	   23.0000 	   45.0000 	   38.7874 
    2.7695 	   19.3880 	   23.0000 	   45.0000 	   38.8224 
    2.5101 	   19.4060 	   23.0000 	   45.0000 	   38.8584 
    2.3270 	   19.4260 	   23.0000 	   45.0000 	   38.8984 
    2.5559 	   19.4445 	   23.0000 	   45.0000 	   38.9354 
    2.4186 	   19.4620 	   23.0000 	   45.0000 	   38.9704 
    2.5864 	   19.4795 	   23.0000 	   45.0000 	   39.0054 
    2.5864 	   19.4965 	   23.0000 	   45.0000 	   39.0394 
    2.5101 	   19.5140 	   23.0000 	   45.0000 	   39.0744 
    2.6932 	   19.5320 	   23.0000 	   45.0000 	   39.1104 
    2.6627 	   19.5510 	   23.0000 	   45.0000 	   39.1484 
    2.5559 	   19.5690 	   23.0000 	   45.0000 	   39.1844 
    2.6474 	   19.5870 	   23.0000 	   45.0000 	   39.2204 
    2.6322 	   19.6045 	   23.0000 	   45.0000 	   39.2554 
    2.7237 	   19.6225 	   23.0000 	   45.0000 	   39.2915 
    2.5559 	   19.6415 	   23.0000 	   45.0000 	   39.3295 
    2.6627 	   19.6590 	   23.0000 	   45.0000 	   39.3645 
    2.6780 	   19.6770 	   23.0000 	   45.0000 	   39.4005 
    2.7085 	   19.6950 	   23.0000 	   45.0000 	   39.4365 
    2.5864 	   19.7130 	   23.0000 	   45.0000 	   39.4725 
    2.5711 	   19.7295 	   23.0000 	   45.0000 	   39.5055 
    2.6474 	   19.7480 	   23.0000 	   45.0000 	   39.5425 
    2.5101 	   19.7665 	   23.0000 	   45.0000 	   39.5795 
    2.5254 	   19.7830 	   23.0000 	   45.0000 	   39.6125 
    2.6322 	   19.8010 	   23.0000 	   45.0000 	   39.6485 
    2.2202 	   19.8180 	   23.0000 	   45.0000 	   39.6825 
    2.6017 	   19.8360 	   23.0000 	   45.0000 	   39.7185 
    2.5864 	   19.8540 	   23.0000 	   45.0000 	   39.7545 
    2.5559 	   19.8725 	   23.0000 	   45.0000 	   39.7915 
    2.6932 	   19.8900 	   23.0000 	   45.0000 	   39.8265 
    2.5559 	   19.9085 	   23.0000 	   45.0000 	   39.8635 
    2.6017 	   19.9250 	   23.0000 	   45.0000 	   39.8965 
    2.4948 	   19.9430 	   23.0000 	   45.0000 	   39.9325 
    2.7695 	   19.9605 	   23.0000 	   45.0000 	   39.9675 
    2.5254 	   19.9800 	   23.0000 	   45.0000 	   40.0065 
    2.6169 	   19.9970 	   23.0000 	   45.0000 	   40.0405 
    2.7543 	   20.0150 	   23.0000 	   45.0000 	   40.0765 
    2.5101 	   20.0325 	   23.0000 	   45.0000 	   40.1115 
    2.4338 	   20.0520 	   23.0000 	   45.0000 	   40.1505 
    2.5406 	   20.0700 	   23.0000 	   45.0000 	   40.1865 
    2.6932 	   20.0880 	   23.0000 	   45.0000 	   40.2225 
    2.6322 	   20.1055 	   23.0000 	   45.0000 	   40.2575 
    2.5864 	   20.1230 	   23.0000 	   45.0000 	   40.2925 
    2.6474 	   20.1415 	   23.0000 	   45.0000 	   40.3295 
    2.7848 	   20.1590 	   23.0000 	   45.0000 	   40.3645 
    2.6627 	   20.1770 	   23.0000 	   45.0000 	   40.4005 
    2.6780 	   20.1955 	   23.0000 	   45.0000 	   40.4375 
    2.5559 	   20.2125 	   23.0000 	   45.0000 	   40.4705 
    2.5711 	   20.2305 	   23.0000 	   45.0000 	   40.5075 
    2.5406 	   20.2485 	   23.0000 	   45.0000 	   40.5435 
    2.7390 	   20.2670 	   23.0000 	   45.0000 	   40.5805 
    2.5254 	   20.2845 	   23.0000 	   45.0000 	   40.6155 
    2.6169 	   20.3025 	   23.0000 	   45.0000 	   40.6515 
    2.5864 	   20.3210 	   23.0000 	   45.0000 	   40.6885 
    2.5559 	   20.3390 	   23.0000 	   45.0000 	   40.7245 
    2.6627 	   20.3560 	   23.0000 	   45.0000 	   40.7585 
    2.5711 	   20.3740 	   23.0000 	   45.0000 	   40.7945 
    2.6932 	   20.3910 	   23.0000 	   45.0000 	   40.8285 
    2.6169 	   20.4095 	   23.0000 	   45.0000 	   40.8655 
    2.6627 	   20.4275 	   23.0000 	   45.0000 	   40.9015 
    2.8153 	   20.4460 	   23.0000 	   45.0000 	   40.9385 
    2.9221 	   20.4635 	   23.0000 	   45.0000 	   40.9735 
    2.6169 	   20.4825 	   23.0000 	   45.0000 	   41.0116 
    2.7543 	   20.5030 	   23.0000 	   45.0000 	   41.0526 
    2.7085 	   20.5210 	   23.0000 	   45.0000 	   41.0886 
    2.6627 	   20.5400 	   23.0000 	   45.0000 	   41.1266 
    2.5864 	   20.5575 	   23.0000 	   45.0000 	   41.1616 
    2.7695 	   20.5750 	   23.0000 	   45.0000 	   41.1966 
    2.6322 	   20.5935 	   23.0000 	   45.0000 	   41.2336 
    2.7695 	   20.6110 	   23.0000 	   45.0000 	   41.2686 
    2.6169 	   20.6280 	   23.0000 	   45.0000 	   41.3026 
    2.6322 	   20.6450 	   23.0000 	   45.0000 	   41.3366 
    2.6627 	   20.6625 	   23.0000 	   45.0000 	   41.3716 
    2.5864 	   20.6795 	   23.0000 	   45.0000 	   41.4056 
    2.5406 	   20.6975 	   23.0000 	   45.0000 	   41.4416 
    2.7237 	   20.7155 	   23.0000 	   45.0000 	   41.4776 
    2.5406 	   20.7325 	   23.0000 	   45.0000 	   41.5116 
    2.7085 	   20.7505 	   23.0000 	   45.0000 	   41.5476 
    2.7085 	   20.7685 	   23.0000 	   45.0000 	   41.5836 
    2.6017 	   20.7875 	   23.0000 	   45.0000 	   41.6216 
    2.6322 	   20.8050 	   23.0000 	   45.0000 	   41.6566 
    2.7390 	   20.8230 	   23.0000 	   45.0000 	   41.6926 
    2.5101 	   20.8420 	   23.0000 	   45.0000 	   41.7306 
    2.8153 	   20.8605 	   23.0000 	   45.0000 	   41.7676 
    2.4186 	   20.8780 	   23.0000 	   45.0000 	   41.8026 
    2.6322 	   20.8960 	   23.0000 	   45.0000 	   41.8386 
    2.6627 	   20.9130 	   23.0000 	   45.0000 	   41.8726 
    2.6017 	   20.9320 	   23.0000 	   45.0000 	   41.9106 
    2.6932 	   20.9505 	   23.0000 	   45.0000 	   41.9476 
    2.7695 	   20.9685 	   23.0000 	   45.0000 	   41.9836 
    2.6780 	   20.9865 	   23.0000 	   45.0000 	   42.0196 
    2.7085 	   21.0030 	   23.0000 	   45.0000 	   42.0526 
    2.6627 	   21.0205 	   23.0000 	   45.0000 	   42.0876 
    2.6932 	   21.0400 	   23.0000 	   45.0000 	   42.1266 
    2.6322 	   21.0580 	   23.0000 	   45.0000 	   42.1626 
    2.6627 	   21.0760 	   23.0000 	   45.0000 	   42.1986 
    2.9068 	   21.0945 	   23.0000 	   45.0000 	   42.2356 
    2.6780 	   21.1135 	   23.0000 	   45.0000 	   42.2736 
    2.7237 	   21.1305 	   23.0000 	   45.0000 	   42.3076 
    2.5864 	   21.1485 	   23.0000 	   45.0000 	   42.3436 
    2.6322 	   21.1660 	   23.0000 	   45.0000 	   42.3786 
    2.6169 	   21.1840 	   23.0000 	   45.0000 	   42.4146 
    2.6169 	   21.2030 	   23.0000 	   45.0000 	   42.4526 
    2.8916 	   21.2215 	   23.0000 	   45.0000 	   42.4896 
    2.8611 	   21.2395 	   23.0000 	   45.0000 	   42.5256 
    2.6627 	   21.2570 	   23.0000 	   45.0000 	   42.5606 
    2.7237 	   21.2750 	   23.0000 	   45.0000 	   42.5966 
    2.7695 	   21.2920 	   23.0000 	   45.0000 	   42.6306 
    2.7390 	   21.3100 	   23.0000 	   45.0000 	   42.6666 
    2.6932 	   21.3280 	   23.0000 	   45.0000 	   42.7026 
    2.7085 	   21.3455 	   23.0000 	   45.0000 	   42.7376 
    2.8763 	   21.3620 	   23.0000 	   45.0000 	   42.7706 
    2.8000 	   21.3805 	   23.0000 	   45.0000 	   42.8077 
    2.7543 	   21.3975 	   23.0000 	   45.0000 	   42.8417 
    2.8153 	   21.4150 	   23.0000 	   45.0000 	   42.8767 
    2.8611 	   21.4320 	   23.0000 	   45.0000 	   42.9107 
    2.6932 	   21.4510 	   23.0000 	   45.0000 	   42.9487 
    2.7848 	   21.4685 	   23.0000 	   45.0000 	   42.9837 
    2.9221 	   21.4870 	   23.0000 	   45.0000 	   43.0207 
    2.5711 	   21.5045 	   23.0000 	   45.0000 	   43.0557 
    2.8000 	   21.5225 	   23.0000 	   45.0000 	   43.0917 
    2.7390 	   21.5415 	   23.0000 	   45.0000 	   43.1297 
    2.8153 	   21.5590 	   23.0000 	   45.0000 	   43.1647 
    2.6169 	   21.5775 	   23.0000 	   45.0000 	   43.2017 
    2.7085 	   21.5950 	   23.0000 	   45.0000 	   43.2367 
    2.8916 	   21.6125 	   23.0000 	   45.0000 	   43.2717 
    2.7085 	   21.6300 	   23.0000 	   45.0000 	   43.3067 
    2.7237 	   21.6475 	   23.0000 	   45.0000 	   43.3417 
    2.8000 	   21.6655 	   23.0000 	   45.0000 	   43.3777 
    2.8763 	   21.6840 	   23.0000 	   45.0000 	   43.4147 
    2.8153 	   21.7020 	   23.0000 	   45.0000 	   43.4507 
    2.6932 	   21.7195 	   23.0000 	   45.0000 	   43.4857 
    2.7848 	   21.7385 	   23.0000 	   45.0000 	   43.5237 
    2.8305 	   21.7560 	   23.0000 	   45.0000 	   43.5587 
    2.7848 	   21.7740 	   23.0000 	   45.0000 	   43.5947 
    2.8153 	   21.7920 	   23.0000 	   45.0000 	   43.6307 
    2.7085 	   21.8110 	   23.0000 	   45.0000 	   43.6687 
    2.7085 	   21.8300 	   23.0000 	   45.0000 	   43.7067 
    2.7848 	   21.8475 	   23.0000 	   45.0000 	   43.7417 
    2.7848 	   21.8650 	   23.0000 	   45.0000 	   43.7767 
    2.9068 	   21.8830 	   23.0000 	   45.0000 	   43.8127 
    2.7848 	   21.9010 	   23.0000 	   45.0000 	   43.8487 
    2.8763 	   21.9190 	   23.0000 	   45.0000 	   43.8847 
    2.7848 	   21.9375 	   23.0000 	   45.0000 	   43.9217 
    2.8916 	   21.9555 	   23.0000 	   45.0000 	   43.9577 
    2.6474 	   21.9725 	   23.0000 	   45.0000 	   43.9917 
    2.7085 	   21.9905 	   23.0000 	   45.0000 	   44.0277 
    2.8916 	   22.0090 	   23.0000 	   45.0000 	   44.0647 
    2.7543 	   22.0270 	   23.0000 	   45.0000 	   44.1007 
    2.7390 	   22.0465 	   23.0000 	   45.0000 	   44.1397 
    2.8763 	   22.0645 	   23.0000 	   45.0000 	   44.1757 
    2.8458 	   22.0825 	   23.0000 	   45.0000 	   44.2117 
    2.8000 	   22.0995 	   23.0000 	   45.0000 	   44.2457 
    2.8611 	   22.1165 	   23.0000 	   45.0000 	   44.2797 
    2.6932 	   22.1345 	   23.0000 	   45.0000 	   44.3157 
    2.7848 	   22.1520 	   23.0000 	   45.0000 	   44.3507 
    2.7237 	   22.1700 	   23.0000 	   45.0000 	   44.3867 
    2.8305 	   22.1885 	   23.0000 	   45.0000 	   44.4237 
    2.9526 	   22.2055 	   23.0000 	   45.0000 	   44.4577 
    2.8916 	   22.2245 	   23.0000 	   45.0000 	   44.4958 
    2.7695 	   22.2420 	   23.0000 	   45.0000 	   44.5308 
    2.6627 	   22.2595 	   23.0000 	   45.0000 	   44.5658 
    2.8763 	   22.2785 	   23.0000 	   45.0000 	   44.6038 
    2.9831 	   22.2970 	   23.0000 	   45.0000 	   44.6408 
    2.9526 	   22.3160 	   23.0000 	   45.0000 	   44.6788 
    2.8000 	   22.3330 	   23.0000 	   45.0000 	   44.7128 
    2.8611 	   22.3510 	   23.0000 	   45.0000 	   44.7488 
    2.8916 	   22.3700 	   23.0000 	   45.0000 	   44.7868 
    2.9374 	   22.3880 	   23.0000 	   45.0000 	   44.8228 
    2.7085 	   22.4045 	   23.0000 	   45.0000 	   44.8558 
    2.7695 	   22.4215 	   23.0000 	   45.0000 	   44.8898 
    2.7390 	   22.4390 	   23.0000 	   45.0000 	   44.9248 
    2.7848 	   22.4570 	   23.0000 	   45.0000 	   44.9608 
    2.8611 	   22.4760 	   23.0000 	   45.0000 	   44.9988 
    2.7695 	   22.4950 	   23.0000 	   45.0000 	   45.0368 
    2.8153 	   22.5140 	   23.0000 	   45.0000 	   45.0748 
    2.8000 	   22.5325 	   23.0000 	   45.0000 	   45.1118 
    2.9526 	   22.5530 	   23.0000 	   45.0000 	   45.1528 
    2.8611 	   22.5720 	   23.0000 	   45.0000 	   45.1908 
    2.9679 	   22.5895 	   23.0000 	   45.0000 	   45.2258 
    2.7695 	   22.6075 	   23.0000 	   45.0000 	   45.2618 
    2.9679 	   22.6255 	   23.0000 	   45.0000 	   45.2978 
    2.8916 	   22.6430 	   23.0000 	   45.0000 	   45.3328 
    2.7695 	   22.6610 	   23.0000 	   45.0000 	   45.3688 
    2.7390 	   22.6785 	   23.0000 	   45.0000 	   45.4038 
    2.8916 	   22.6960 	   23.0000 	   45.0000 	   45.4388 
    2.9068 	   22.7135 	   23.0000 	   45.0000 	   45.4738 
    2.9831 	   22.7320 	   23.0000 	   45.0000 	   45.5108 
    2.8611 	   22.7495 	   23.0000 	   45.0000 	   45.5458 
    2.9679 	   22.7685 	   23.0000 	   45.0000 	   45.5838 
    2.9068 	   22.7865 	   23.0000 	   45.0000 	   45.6198 
    2.8763 	   22.8050 	   23.0000 	   45.0000 	   45.6568 
    2.8153 	   22.8230 	   23.0000 	   45.0000 	   45.6928 
    2.7085 	   22.8415 	   23.0000 	   45.0000 	   45.7298 
    2.9374 	   22.8605 	   23.0000 	   45.0000 	   45.7678 
    2.8458 	   22.8780 	   23.0000 	   45.0000 	   45.8028 
    2.8916 	   22.8965 	   23.0000 	   45.0000 	   45.8398 
    2.8000 	   22.9155 	   23.0000 	   45.0000 	   45.8778 
    2.8305 	   22.9330 	   23.0000 	   45.0000 	   45.9128 
    2.9221 	   22.9505 	   23.0000 	   45.0000 	   45.9478 
    2.8763 	   22.9695 	   23.0000 	   45.0000 	   45.9858 
    2.9374 	   22.9865 	   23.0000 	   45.0000 	   46.0198 
    2.8611 	   23.0040 	   23.0000 	   45.0000 	   46.0548 
    2.9374 	   23.0225 	   23.0000 	   45.0000 	   46.0918 
    2.8305 	   23.0425 	   23.0000 	   45.0000 	   46.1318 
    2.8000 	   23.0605 	   23.0000 	   45.0000 	   46.1678 
    2.9068 	   23.0780 	   23.0000 	   45.0000 	   46.2028 
    2.8916 	   23.0960 	   23.0000 	   45.0000 	   46.2388 
    2.8611 	   23.1145 	   23.0000 	   45.0000 	   46.2759 
    2.9068 	   23.1320 	   23.0000 	   45.0000 	   46.3109 
    2.8611 	   23.1505 	   23.0000 	   45.0000 	   46.3479 
    2.8611 	   23.1685 	   23.0000 	   45.0000 	   46.3839 
    2.9679 	   23.1870 	   23.0000 	   45.0000 	   46.4209 
    2.9221 	   23.2070 	   23.0000 	   45.0000 	   46.4609 
    3.1205 	   23.2255 	   23.0000 	   45.0000 	   46.4979 
    2.7695 	   23.2435 	   23.0000 	   45.0000 	   46.5339 
    2.9526 	   23.2625 	   23.0000 	   45.0000 	   46.5719 
    2.9068 	   23.2805 	   23.0000 	   45.0000 	   46.6079 
    2.8611 	   23.2985 	   23.0000 	   45.0000 	   46.6439 
    2.9526 	   23.3160 	   23.0000 	   45.0000 	   46.6789 
    2.8611 	   23.3335 	   23.0000 	   45.0000 	   46.7139 
    2.9984 	   23.3510 	   23.0000 	   45.0000 	   46.7489 
    3.0137 	   23.3695 	   23.0000 	   45.0000 	   46.7859 
    2.7390 	   23.3875 	   23.0000 	   45.0000 	   46.8219 
    2.9526 	   23.4060 	   23.0000 	   45.0000 	   46.8589 
    2.8763 	   23.4235 	   23.0000 	   45.0000 	   46.8939 
    2.9068 	   23.4405 	   23.0000 	   45.0000 	   46.9279 
    3.0137 	   23.4585 	   23.0000 	   45.0000 	   46.9639 
    2.9068 	   23.4765 	   23.0000 	   45.0000 	   46.9999 
    2.9679 	   23.4955 	   23.0000 	   45.0000 	   47.0379 
    2.9526 	   23.5140 	   23.0000 	   45.0000 	   47.0749 
    3.0289 	   23.5320 	   23.0000 	   45.0000 	   47.1109 
    2.8763 	   23.5510 	   23.0000 	   45.0000 	   47.1489 
    3.0137 	   23.5680 	   23.0000 	   45.0000 	   47.1829 
    2.9068 	   23.5870 	   23.0000 	   45.0000 	   47.2209 
    2.8611 	   23.6050 	   23.0000 	   45.0000 	   47.2569 
    2.9374 	   23.6235 	   23.0000 	   45.0000 	   47.2939 
    3.0594 	   23.6420 	   23.0000 	   45.0000 	   47.3309 
    2.8763 	   23.6605 	   23.0000 	   45.0000 	   47.3679 
    2.9374 	   23.6785 	   23.0000 	   45.0000 	   47.4039 
    2.9374 	   23.6975 	   23.0000 	   45.0000 	   47.4419 
    2.8000 	   23.7160 	   23.0000 	   45.0000 	   47.4789 
    2.9679 	   23.7340 	   23.0000 	   45.0000 	   47.5149 
    2.9679 	   23.7520 	   23.0000 	   45.0000 	   47.5509 
    3.1662 	   23.7700 	   23.0000 	   45.0000 	   47.5869 
    3.0442 	   23.7890 	   23.0000 	   45.0000 	   47.6249 
    2.9068 	   23.8065 	   23.0000 	   45.0000 	   47.6599 
    2.8305 	   23.8240 	   23.0000 	   45.0000 	   47.6949 
    3.0900 	   23.8420 	   23.0000 	   45.0000 	   47.7309 
    3.0747 	   23.8600 	   23.0000 	   45.0000 	   47.7669 
    3.0137 	   23.8785 	   23.0000 	   45.0000 	   47.8039 
    3.0289 	   23.8975 	   23.0000 	   45.0000 	   47.8419 
    2.9984 	   23.9155 	   23.0000 	   45.0000 	   47.8779 
    2.9526 	   23.9340 	   23.0000 	   45.0000 	   47.9149 
    3.1052 	   23.9525 	   23.0000 	   45.0000 	   47.9519 
    2.9374 	   23.9700 	   23.0000 	   45.0000 	   47.9869 
    2.9679 	   23.9875 	   23.0000 	   45.0000 	   48.0219 
    3.0442 	   24.0060 	   23.0000 	   45.0000 	   48.0590 
    2.8916 	   24.0245 	   23.0000 	   45.0000 	   48.0960 
    2.8763 	   24.0445 	   23.0000 	   45.0000 	   48.1360 
    3.0442 	   24.0625 	   23.0000 	   45.0000 	   48.1720 
    2.9984 	   24.0820 	   23.0000 	   45.0000 	   48.2110 
    3.0137 	   24.1005 	   23.0000 	   45.0000 	   48.2480 
    3.0594 	   24.1190 	   23.0000 	   45.0000 	   48.2850 
    3.0289 	   24.1370 	   23.0000 	   45.0000 	   48.3210 
    3.0900 	   24.1550 	   23.0000 	   45.0000 	   48.3570 
    3.0442 	   24.1730 	   23.0000 	   45.0000 	   48.3930 
    3.0594 	   24.1915 	   23.0000 	   45.0000 	   48.4300 
    3.0137 	   24.2100 	   23.0000 	   45.0000 	   48.4670 
    2.9374 	   24.2280 	   23.0000 	   45.0000 	   48.5030 
    3.0900 	   24.2465 	   23.0000 	   45.0000 	   48.5400 
    3.0289 	   24.2655 	   23.0000 	   45.0000 	   48.5780 
    2.9374 	   24.2835 	   23.0000 	   45.0000 	   48.6140 
    3.0289 	   24.3015 	   23.0000 	   45.0000 	   48.6500 
    2.9526 	   24.3205 	   23.0000 	   45.0000 	   48.6880 
    3.0442 	   24.3395 	   23.0000 	   45.0000 	   48.7260 
    3.0442 	   24.3575 	   23.0000 	   45.0000 	   48.7620 
    2.8763 	   24.3770 	   23.0000 	   45.0000 	   48.8010 
    3.1968 	   24.3945 	   23.0000 	   45.0000 	   48.8360 
    2.8763 	   24.4135 	   23.0000 	   45.0000 	   48.8740 
    3.0747 	   24.4325 	   23.0000 	   45.0000 	   48.9120 
    3.0594 	   24.4510 	   23.0000 	   45.0000 	   48.9490 
    3.0747 	   24.4690 	   23.0000 	   45.0000 	   48.9850 
    2.9831 	   24.4880 	   23.0000 	   45.0000 	   49.0230 
    3.1052 	   24.5065 	   23.0000 	   45.0000 	   49.0600 
    3.0137 	   24.5250 	   23.0000 	   45.0000 	   49.0970 
    3.0289 	   24.5460 	   23.0000 	   45.0000 	   49.1390 
    3.0137 	   24.5655 	   23.0000 	   45.0000 	   49.1780 
    3.1205 	   24.5845 	   23.0000 	   45.0000 	   49.2160 
    2.9679 	   24.6025 	   23.0000 	   45.0000 	   49.2520 
    3.1205 	   24.6200 	   23.0000 	   45.0000 	   49.2870 
    3.0442 	   24.6390 	   23.0000 	   45.0000 	   49.3250 
    3.1357 	   24.6575 	   23.0000 	   45.0000 	   49.3620 
    2.9679 	   24.6760 	   23.0000 	   45.0000 	   49.3990 
    3.0900 	   24.6945 	   23.0000 	   45.0000 	   49.4360 
    3.1662 	   24.7125 	   23.0000 	   45.0000 	   49.4720 
    3.0747 	   24.7310 	   23.0000 	   45.0000 	   49.5090 
    3.1510 	   24.7495 	   23.0000 	   45.0000 	   49.5460 
    3.0747 	   24.7675 	   23.0000 	   45.0000 	   49.5820 
    2.9679 	   24.7865 	   23.0000 	   45.0000 	   49.6200 
    3.1052 	   24.8050 	   23.0000 	   45.0000 	   49.6570 
    2.9679 	   24.8230 	   23.0000 	   45.0000 	   49.6930 
    3.1815 	   24.8420 	   23.0000 	   45.0000 	   49.7310 
    3.0442 	   24.8610 	   23.0000 	   45.0000 	   49.7691 
    3.1968 	   24.8805 	   23.0000 	   45.0000 	   49.8081 
    2.7543 	   24.8985 	   23.0000 	   45.0000 	   49.8441 
    3.0442 	   24.9165 	   23.0000 	   45.0000 	   49.8801 
    3.1205 	   24.9350 	   23.0000 	   45.0000 	   49.9171 
    2.9984 	   24.9525 	   23.0000 	   45.0000 	   49.9521 
    3.1815 	   24.9710 	   23.0000 	   45.0000 	   49.9891 
    3.1968 	   24.9885 	   23.0000 	   45.0000 	   50.0241 
    2.7848 	   25.0075 	   23.0000 	   45.0000 	   50.0621 
    3.1052 	   25.0255 	   23.0000 	   45.0000 	   50.0981 
    3.2120 	   25.0460 	   23.0000 	   45.0000 	   50.1391 
    3.0747 	   25.0640 	   23.0000 	   45.0000 	   50.1751 
    3.1052 	   25.0840 	   23.0000 	   45.0000 	   50.2151 
    3.1205 	   25.1025 	   23.0000 	   45.0000 	   50.2521 
    3.0747 	   25.1205 	   23.0000 	   45.0000 	   50.2881 
    3.1205 	   25.1385 	   23.0000 	   45.0000 	   50.3241 
    3.1968 	   25.1575 	   23.0000 	   45.0000 	   50.3621 
    3.2731 	   25.1755 	   23.0000 	   45.0000 	   50.3981 
    3.0594 	   25.1945 	   23.0000 	   45.0000 	   50.4361 
    3.0594 	   25.2130 	   23.0000 	   45.0000 	   50.4731 
    3.0900 	   25.2310 	   23.0000 	   45.0000 	   50.5091 
    3.0900 	   25.2495 	   23.0000 	   45.0000 	   50.5451 
    3.0747 	   25.2665 	   23.0000 	   45.0000 	   50.5791 
    3.0137 	   25.2860 	   23.0000 	   45.0000 	   50.6181 
    3.0747 	   25.3045 	   23.0000 	   45.0000 	   50.6551 
    2.9831 	   25.3225 	   23.0000 	   45.0000 	   50.6911 
    2.9374 	   25.3410 	   23.0000 	   45.0000 	   50.7281 
    3.1815 	   25.3595 	   23.0000 	   45.0000 	   50.7651 
    3.2120 	   25.3775 	   23.0000 	   45.0000 	   50.8011 
    3.2273 	   25.3970 	   23.0000 	   45.0000 	   50.8401 
    3.0747 	   25.4150 	   23.0000 	   45.0000 	   50.8761 
    3.1662 	   25.4330 	   23.0000 	   45.0000 	   50.9121 
    3.0594 	   25.4510 	   23.0000 	   45.0000 	   50.9481 
    3.0900 	   25.4685 	   23.0000 	   45.0000 	   50.9831 
    3.1968 	   25.4865 	   23.0000 	   45.0000 	   51.0191 
    3.1662 	   25.5040 	   23.0000 	   45.0000 	   51.0541 
    3.1968 	   25.5230 	   23.0000 	   45.0000 	   51.0921 
    3.1052 	   25.5435 	   23.0000 	   45.0000 	   51.1331 
    3.0289 	   25.5615 	   23.0000 	   45.0000 	   51.1691 
    3.0594 	   25.5795 	   23.0000 	   45.0000 	   51.2051 
    3.1205 	   25.5980 	   23.0000 	   45.0000 	   51.2421 
    3.1510 	   25.6160 	   23.0000 	   45.0000 	   51.2781 
    3.0900 	   25.6340 	   23.0000 	   45.0000 	   51.3141 
    3.1815 	   25.6525 	   23.0000 	   45.0000 	   51.3511 
    3.1357 	   25.6715 	   23.0000 	   45.0000 	   51.3891 
    3.4104 	   25.6900 	   23.0000 	   45.0000 	   51.4261 
    3.1510 	   25.7080 	   23.0000 	   45.0000 	   51.4621 
    3.2425 	   25.7265 	   23.0000 	   45.0000 	   51.4991 
    3.3494 	   25.7455 	   23.0000 	   45.0000 	   51.5372 
    3.0900 	   25.7640 	   23.0000 	   45.0000 	   51.5742 
    3.0289 	   25.7820 	   23.0000 	   45.0000 	   51.6102 
    3.0289 	   25.8005 	   23.0000 	   45.0000 	   51.6472 
    3.0747 	   25.8195 	   23.0000 	   45.0000 	   51.6852 
    3.2731 	   25.8385 	   23.0000 	   45.0000 	   51.7232 
    3.2120 	   25.8570 	   23.0000 	   45.0000 	   51.7602 
    3.1968 	   25.8755 	   23.0000 	   45.0000 	   51.7972 
    3.1357 	   25.8940 	   23.0000 	   45.0000 	   51.8342 
    3.0594 	   25.9130 	   23.0000 	   45.0000 	   51.8722 
    3.1205 	   25.9315 	   23.0000 	   45.0000 	   51.9092 
    3.1968 	   25.9500 	   23.0000 	   45.0000 	   51.9462 
    3.0900 	   25.9685 	   23.0000 	   45.0000 	   51.9832 
    2.9374 	   25.9865 	   23.0000 	   45.0000 	   52.0192 
    3.1662 	   26.0040 	   23.0000 	   45.0000 	   52.0542 
    3.2273 	   26.0220 	   23.0000 	   45.0000 	   52.0902 
    3.1357 	   26.0420 	   23.0000 	   45.0000 	   52.1302 
    3.1662 	   26.0600 	   23.0000 	   45.0000 	   52.1662 
    3.1510 	   26.0785 	   23.0000 	   45.0000 	   52.2032 
    3.2578 	   26.0965 	   23.0000 	   45.0000 	   52.2392 
    3.2425 	   26.1145 	   23.0000 	   45.0000 	   52.2752 
    3.1662 	   26.1330 	   23.0000 	   45.0000 	   52.3122 
    3.3188 	   26.1505 	   23.0000 	   45.0000 	   52.3472 
    3.1357 	   26.1665 	   23.0000 	   45.0000 	   52.3792 
    3.1815 	   26.1850 	   23.0000 	   45.0000 	   52.4162 
    3.2273 	   26.2025 	   23.0000 	   45.0000 	   52.4512 
    3.2578 	   26.2190 	   23.0000 	   45.0000 	   52.4842 
    2.9679 	   26.2360 	   23.0000 	   45.0000 	   52.5182 
    3.2273 	   26.2520 	   23.0000 	   45.0000 	   52.5502 
    3.4104 	   26.2685 	   23.0000 	   45.0000 	   52.5832 
    3.2883 	   26.2850 	   23.0000 	   45.0000 	   52.6162 
    2.9679 	   26.3015 	   23.0000 	   45.0000 	   52.6492 
    3.1815 	   26.3185 	   23.0000 	   45.0000 	   52.6832 
    3.1968 	   26.3345 	   23.0000 	   45.0000 	   52.7152 
    3.0289 	   26.3515 	   23.0000 	   45.0000 	   52.7492 
    3.2120 	   26.3680 	   23.0000 	   45.0000 	   52.7822 
    3.3646 	   26.3850 	   23.0000 	   45.0000 	   52.8162 
    3.2120 	   26.4015 	   23.0000 	   45.0000 	   52.8492 
    3.2273 	   26.4180 	   23.0000 	   45.0000 	   52.8822 
    3.2273 	   26.4345 	   23.0000 	   45.0000 	   52.9152 
    3.2731 	   26.4510 	   23.0000 	   45.0000 	   52.9482 
    3.3341 	   26.4675 	   23.0000 	   45.0000 	   52.9812 
    3.2120 	   26.4845 	   23.0000 	   45.0000 	   53.0152 
    3.2578 	   26.5010 	   23.0000 	   45.0000 	   53.0482 
    3.1205 	   26.5175 	   23.0000 	   45.0000 	   53.0812 
    3.1815 	   26.5360 	   23.0000 	   45.0000 	   53.1182 
    3.3646 	   26.5525 	   23.0000 	   45.0000 	   53.1512 
    3.2883 	   26.5685 	   23.0000 	   45.0000 	   53.1832 
    3.2578 	   26.5855 	   23.0000 	   45.0000 	   53.2162 
    3.2120 	   26.6015 	   23.0000 	   45.0000 	   53.2492 
    3.2425 	   26.6185 	   23.0000 	   45.0000 	   53.2833 
    3.2120 	   26.6350 	   23.0000 	   45.0000 	   53.3163 
    2.9221 	   26.6515 	   23.0000 	   45.0000 	   53.3493 
    3.2578 	   26.6680 	   23.0000 	   45.0000 	   53.3823 
    3.2425 	   26.6845 	   23.0000 	   45.0000 	   53.4153 
    3.3036 	   26.7015 	   23.0000 	   45.0000 	   53.4483 
    3.2273 	   26.7175 	   23.0000 	   45.0000 	   53.4813 
    3.2578 	   26.7340 	   23.0000 	   45.0000 	   53.5143 
    3.3646 	   26.7505 	   23.0000 	   45.0000 	   53.5473 
    3.2731 	   26.7670 	   23.0000 	   45.0000 	   53.5803 
    3.3036 	   26.7840 	   23.0000 	   45.0000 	   53.6143 
    3.3036 	   26.8010 	   23.0000 	   45.0000 	   53.6483 
    3.2273 	   26.8170 	   23.0000 	   45.0000 	   53.6803 
    3.3799 	   26.8345 	   23.0000 	   45.0000 	   53.7153 
    3.2273 	   26.8535 	   23.0000 	   45.0000 	   53.7533 
    3.1815 	   26.8730 	   23.0000 	   45.0000 	   53.7923 
    3.1052 	   26.8900 	   23.0000 	   45.0000 	   53.8263 
    3.1968 	   26.9085 	   23.0000 	   45.0000 	   53.8633 
    3.2120 	   26.9270 	   23.0000 	   45.0000 	   53.9003 
    3.2883 	   26.9455 	   23.0000 	   45.0000 	   53.9373 
    3.3188 	   26.9640 	   23.0000 	   45.0000 	   53.9743 
    3.2578 	   26.9815 	   23.0000 	   45.0000 	   54.0093 
    3.0289 	   27.0005 	   23.0000 	   45.0000 	   54.0473 
    3.2731 	   27.0180 	   23.0000 	   45.0000 	   54.0823 
    3.3341 	   27.0390 	   23.0000 	   45.0000 	   54.1243 
    3.4714 	   27.0580 	   23.0000 	   45.0000 	   54.1623 
    3.2578 	   27.0765 	   23.0000 	   45.0000 	   54.1993 
    3.2425 	   27.0955 	   23.0000 	   45.0000 	   54.2373 
    3.4104 	   27.1125 	   23.0000 	   45.0000 	   54.2713 
    3.1968 	   27.1320 	   23.0000 	   45.0000 	   54.3103 
    3.3341 	   27.1505 	   23.0000 	   45.0000 	   54.3473 
    3.2883 	   27.1675 	   23.0000 	   45.0000 	   54.3813 
    3.4257 	   27.1865 	   23.0000 	   45.0000 	   54.4193 
    3.2883 	   27.2045 	   23.0000 	   45.0000 	   54.4553 
    3.4409 	   27.2220 	   23.0000 	   45.0000 	   54.4903 
    3.1815 	   27.2395 	   23.0000 	   45.0000 	   54.5253 
    3.3188 	   27.2590 	   23.0000 	   45.0000 	   54.5643 
    3.3188 	   27.2770 	   23.0000 	   45.0000 	   54.6003 
    3.2883 	   27.2965 	   23.0000 	   45.0000 	   54.6393 
    3.3646 	   27.3150 	   23.0000 	   45.0000 	   54.6763 
    2.9984 	   27.3335 	   23.0000 	   45.0000 	   54.7133 
    3.3036 	   27.3520 	   23.0000 	   45.0000 	   54.7503 
    3.3341 	   27.3710 	   23.0000 	   45.0000 	   54.7883 
    3.3188 	   27.3905 	   23.0000 	   45.0000 	   54.8273 
    3.2883 	   27.4095 	   23.0000 	   45.0000 	   54.8653 
    3.3036 	   27.4275 	   23.0000 	   45.0000 	   54.9013 
    3.3036 	   27.4445 	   23.0000 	   45.0000 	   54.9353 
    3.4562 	   27.4615 	   23.0000 	   45.0000 	   54.9693 
    3.3494 	   27.4800 	   23.0000 	   45.0000 	   55.0064 
    3.4257 	   27.4975 	   23.0000 	   45.0000 	   55.0414 
    3.3799 	   27.5165 	   23.0000 	   45.0000 	   55.0794 
    3.3646 	   27.5350 	   23.0000 	   45.0000 	   55.1164 
    3.3799 	   27.5560 	   23.0000 	   45.0000 	   55.1584 
    3.4257 	   27.5745 	   23.0000 	   45.0000 	   55.1954 
    3.3341 	   27.5930 	   23.0000 	   45.0000 	   55.2324 
    3.2883 	   27.6105 	   23.0000 	   45.0000 	   55.2674 
    3.3646 	   27.6285 	   23.0000 	   45.0000 	   55.3034 
    3.3646 	   27.6465 	   23.0000 	   45.0000 	   55.3394 
    3.3036 	   27.6650 	   23.0000 	   45.0000 	   55.3764 
    3.4409 	   27.6835 	   23.0000 	   45.0000 	   55.4134 
    3.3646 	   27.7025 	   23.0000 	   45.0000 	   55.4514 
    3.2578 	   27.7215 	   23.0000 	   45.0000 	   55.4894 
    3.4714 	   27.7405 	   23.0000 	   45.0000 	   55.5274 
    3.3799 	   27.7595 	   23.0000 	   45.0000 	   55.5654 
    3.3341 	   27.7780 	   23.0000 	   45.0000 	   55.6024 
    3.3494 	   27.7970 	   23.0000 	   45.0000 	   55.6404 
    3.4714 	   27.8155 	   23.0000 	   45.0000 	   55.6774 
    3.6393 	   27.8345 	   23.0000 	   45.0000 	   55.7154 
    3.4714 	   27.8530 	   23.0000 	   45.0000 	   55.7524 
    3.4714 	   27.8730 	   23.0000 	   45.0000 	   55.7924 
    3.3494 	   27.8920 	   23.0000 	   45.0000 	   55.8304 
    3.2120 	   27.9110 	   23.0000 	   45.0000 	   55.8684 
    3.3951 	   27.9295 	   23.0000 	   45.0000 	   55.9054 
    3.3646 	   27.9480 	   23.0000 	   45.0000 	   55.9424 
    3.3036 	   27.9655 	   23.0000 	   45.0000 	   55.9774 
    3.5477 	   27.9830 	   23.0000 	   45.0000 	   56.0124 
    3.2273 	   28.0000 	   23.0000 	   45.0000 	   56.0464 
    3.3646 	   28.0180 	   23.0000 	   45.0000 	   56.0824 
    3.4867 	   28.0385 	   23.0000 	   45.0000 	   56.1234 
    3.3799 	   28.0570 	   23.0000 	   45.0000 	   56.1604 
    3.4714 	   28.0760 	   23.0000 	   45.0000 	   56.1984 
    3.4562 	   28.0950 	   23.0000 	   45.0000 	   56.2364 
    3.3646 	   28.1135 	   23.0000 	   45.0000 	   56.2734 
    3.5630 	   28.1320 	   23.0000 	   45.0000 	   56.3104 
    3.4257 	   28.1515 	   23.0000 	   45.0000 	   56.3494 
    3.4562 	   28.1705 	   23.0000 	   45.0000 	   56.3874 
    3.0747 	   28.1895 	   23.0000 	   45.0000 	   56.4254 
    3.6088 	   28.2095 	   23.0000 	   45.0000 	   56.4654 
    3.4257 	   28.2265 	   23.0000 	   45.0000 	   56.4994 
    3.4714 	   28.2430 	   23.0000 	   45.0000 	   56.5324 
    3.1662 	   28.2615 	   23.0000 	   45.0000 	   56.5694 
    3.3951 	   28.2790 	   23.0000 	   45.0000 	   56.6044 
    3.4409 	   28.2985 	   23.0000 	   45.0000 	   56.6434 
    3.4257 	   28.3185 	   23.0000 	   45.0000 	   56.6834 
    3.3951 	   28.3365 	   23.0000 	   45.0000 	   56.7194 
    3.6393 	   28.3555 	   23.0000 	   45.0000 	   56.7575 
    3.3036 	   28.3745 	   23.0000 	   45.0000 	   56.7955 
    3.2731 	   28.3935 	   23.0000 	   45.0000 	   56.8335 
    3.3951 	   28.4120 	   23.0000 	   45.0000 	   56.8705 
    3.4257 	   28.4310 	   23.0000 	   45.0000 	   56.9085 
    3.3799 	   28.4495 	   23.0000 	   45.0000 	   56.9455 
    3.6240 	   28.4680 	   23.0000 	   45.0000 	   56.9825 
    3.3036 	   28.4875 	   23.0000 	   45.0000 	   57.0215 
    3.4409 	   28.5060 	   23.0000 	   45.0000 	   57.0585 
    3.4867 	   28.5255 	   23.0000 	   45.0000 	   57.0975 
    3.1815 	   28.5450 	   23.0000 	   45.0000 	   57.1365 
    3.3341 	   28.5655 	   23.0000 	   45.0000 	   57.1775 
    3.3494 	   28.5840 	   23.0000 	   45.0000 	   57.2145 
    3.5019 	   28.6020 	   23.0000 	   45.0000 	   57.2505 
    3.4104 	   28.6210 	   23.0000 	   45.0000 	   57.2885 
    3.3036 	   28.6395 	   23.0000 	   45.0000 	   57.3255 
    3.5630 	   28.6585 	   23.0000 	   45.0000 	   57.3635 
    3.3951 	   28.6785 	   23.0000 	   45.0000 	   57.4035 
    3.5325 	   28.6980 	   23.0000 	   45.0000 	   57.4425 
    3.6088 	   28.7175 	   23.0000 	   45.0000 	   57.4815 
    3.5782 	   28.7360 	   23.0000 	   45.0000 	   57.5185 
    3.5477 	   28.7555 	   23.0000 	   45.0000 	   57.5575 
    3.5325 	   28.7740 	   23.0000 	   45.0000 	   57.5945 
    3.2578 	   28.7920 	   23.0000 	   45.0000 	   57.6305 
    3.3951 	   28.8100 	   23.0000 	   45.0000 	   57.6665 
    3.4714 	   28.8290 	   23.0000 	   45.0000 	   57.7045 
    3.4562 	   28.8475 	   23.0000 	   45.0000 	   57.7415 
    3.3646 	   28.8655 	   23.0000 	   45.0000 	   57.7775 
    3.3646 	   28.8845 	   23.0000 	   45.0000 	   57.8155 
    3.4867 	   28.9030 	   23.0000 	   45.0000 	   57.8525 
    3.4409 	   28.9220 	   23.0000 	   45.0000 	   57.8905 
    3.5172 	   28.9405 	   23.0000 	   45.0000 	   57.9275 
    3.3188 	   28.9595 	   23.0000 	   45.0000 	   57.9655 
    3.4867 	   28.9795 	   23.0000 	   45.0000 	   58.0055 
    3.4867 	   28.9975 	   23.0000 	   45.0000 	   58.0415 
    3.6851 	   29.0170 	   23.0000 	   45.0000 	   58.0805 
    3.4867 	   29.0360 	   23.0000 	   45.0000 	   58.1185 
    3.3494 	   29.0565 	   23.0000 	   45.0000 	   58.1595 
    3.6240 	   29.0755 	   23.0000 	   45.0000 	   58.1975 
    3.5172 	   29.0930 	   23.0000 	   45.0000 	   58.2325 
    3.5019 	   29.1115 	   23.0000 	   45.0000 	   58.2695 
    3.4104 	   29.1305 	   23.0000 	   45.0000 	   58.3075 
    3.4257 	   29.1495 	   23.0000 	   45.0000 	   58.3455 
    3.5172 	   29.1685 	   23.0000 	   45.0000 	   58.3835 
    3.7919 	   29.1870 	   23.0000 	   45.0000 	   58.4205 
    3.3646 	   29.2060 	   23.0000 	   45.0000 	   58.4585 
    3.5477 	   29.2270 	   23.0000 	   45.0000 	   58.5005 
    3.5935 	   29.2460 	   23.0000 	   45.0000 	   58.5386 
    3.4867 	   29.2650 	   23.0000 	   45.0000 	   58.5766 
    3.5172 	   29.2830 	   23.0000 	   45.0000 	   58.6126 
    3.5172 	   29.3020 	   23.0000 	   45.0000 	   58.6506 
    3.5477 	   29.3205 	   23.0000 	   45.0000 	   58.6876 
    3.5172 	   29.3400 	   23.0000 	   45.0000 	   58.7266 
    3.5325 	   29.3580 	   23.0000 	   45.0000 	   58.7626 
    3.4257 	   29.3765 	   23.0000 	   45.0000 	   58.7996 
    3.6545 	   29.3940 	   23.0000 	   45.0000 	   58.8346 
    3.5630 	   29.4130 	   23.0000 	   45.0000 	   58.8726 
    3.5782 	   29.4320 	   23.0000 	   45.0000 	   58.9106 
    3.5019 	   29.4515 	   23.0000 	   45.0000 	   58.9496 
    3.5172 	   29.4695 	   23.0000 	   45.0000 	   58.9856 
    3.6088 	   29.4870 	   23.0000 	   45.0000 	   59.0206 
    3.5172 	   29.5060 	   23.0000 	   45.0000 	   59.0586 
    3.5019 	   29.5240 	   23.0000 	   45.0000 	   59.0946 
    3.5935 	   29.5430 	   23.0000 	   45.0000 	   59.1326 
    3.5172 	   29.5620 	   23.0000 	   45.0000 	   59.1706 
    3.5630 	   29.5815 	   23.0000 	   45.0000 	   59.2096 
    3.5477 	   29.6005 	   23.0000 	   45.0000 	   59.2476 
    3.6698 	   29.6190 	   23.0000 	   45.0000 	   59.2846 
    3.2731 	   29.6380 	   23.0000 	   45.0000 	   59.3226 
    3.5172 	   29.6570 	   23.0000 	   45.0000 	   59.3606 
    3.5782 	   29.6765 	   23.0000 	   45.0000 	   59.3996 
    3.5325 	   29.6960 	   23.0000 	   45.0000 	   59.4386 
    3.5630 	   29.7155 	   23.0000 	   45.0000 	   59.4776 
    3.6545 	   29.7335 	   23.0000 	   45.0000 	   59.5136 
    3.5172 	   29.7540 	   23.0000 	   45.0000 	   59.5546 
    3.5477 	   29.7730 	   23.0000 	   45.0000 	   59.5926 
    3.5782 	   29.7920 	   23.0000 	   45.0000 	   59.6306 
    3.5782 	   29.8105 	   23.0000 	   45.0000 	   59.6676 
    3.5935 	   29.8305 	   23.0000 	   45.0000 	   59.7076 
    3.5477 	   29.8490 	   23.0000 	   45.0000 	   59.7446 
    3.5325 	   29.8675 	   23.0000 	   45.0000 	   59.7816 
    3.6545 	   29.8865 	   23.0000 	   45.0000 	   59.8196 
    3.6545 	   29.9050 	   23.0000 	   45.0000 	   59.8566 
    3.5782 	   29.9225 	   23.0000 	   45.0000 	   59.8916 
    3.5935 	   29.9395 	   23.0000 	   45.0000 	   59.9256 
    3.5630 	   29.9560 	   23.0000 	   45.0000 	   59.9586 
    3.6088 	   29.9730 	   23.0000 	   45.0000 	   59.9926 
    3.5477 	   29.9895 	   23.0000 	   46.0000 	    0.0256 
    3.6545 	   30.0060 	   23.0000 	   46.0000 	    0.0586 
    3.5782 	   30.0230 	   23.0000 	   46.0000 	    0.0926 
    3.7613 	   30.0410 	   23.0000 	   46.0000 	    0.1286 
    3.6698 	   30.0595 	   23.0000 	   46.0000 	    0.1656 
    3.3646 	   30.0775 	   23.0000 	   46.0000 	    0.2016 
    3.5325 	   30.0945 	   23.0000 	   46.0000 	    0.2356 
    3.6851 	   30.1135 	   23.0000 	   46.0000 	    0.2737 
    3.6851 	   30.1325 	   23.0000 	   46.0000 	    0.3117 
    3.4257 	   30.1510 	   23.0000 	   46.0000 	    0.3487 
    3.7308 	   30.1715 	   23.0000 	   46.0000 	    0.3897 
    3.6851 	   30.1900 	   23.0000 	   46.0000 	    0.4267 
    3.6851 	   30.2090 	   23.0000 	   46.0000 	    0.4647 
    3.3646 	   30.2285 	   23.0000 	   46.0000 	    0.5037 
    3.5935 	   30.2480 	   23.0000 	   46.0000 	    0.5427 
    3.6240 	   30.2665 	   23.0000 	   46.0000 	    0.5797 
    3.6851 	   30.2855 	   23.0000 	   46.0000 	    0.6177 
    3.7461 	   30.3045 	   23.0000 	   46.0000 	    0.6557 
    3.6240 	   30.3230 	   23.0000 	   46.0000 	    0.6927 
    3.7156 	   30.3425 	   23.0000 	   46.0000 	    0.7317 
    3.5782 	   30.3615 	   23.0000 	   46.0000 	    0.7697 
    3.4867 	   30.3800 	   23.0000 	   46.0000 	    0.8067 
    3.3341 	   30.3990 	   23.0000 	   46.0000 	    0.8447 
    3.7766 	   30.4165 	   23.0000 	   46.0000 	    0.8797 
    3.5935 	   30.4355 	   23.0000 	   46.0000 	    0.9177 
    3.7919 	   30.4540 	   23.0000 	   46.0000 	    0.9547 
    3.5782 	   30.4720 	   23.0000 	   46.0000 	    0.9907 
    3.5935 	   30.4910 	   23.0000 	   46.0000 	    1.0287 
    3.6545 	   30.5100 	   23.0000 	   46.0000 	    1.0667 
    3.7003 	   30.5290 	   23.0000 	   46.0000 	    1.1047 
    3.3036 	   30.5485 	   23.0000 	   46.0000 	    1.1437 
    3.6240 	   30.5670 	   23.0000 	   46.0000 	    1.1807 
    3.6393 	   30.5865 	   23.0000 	   46.0000 	    1.2197 
    3.6851 	   30.6060 	   23.0000 	   46.0000 	    1.2587 
    3.6088 	   30.6250 	   23.0000 	   46.0000 	    1.2967 
    3.7308 	   30.6435 	   23.0000 	   46.0000 	    1.3337 
    3.6240 	   30.6605 	   23.0000 	   46.0000 	    1.3677 
    3.4714 	   30.6770 	   23.0000 	   46.0000 	    1.4007 
    3.2731 	   30.6955 	   23.0000 	   46.0000 	    1.4377 
    3.6393 	   30.7140 	   23.0000 	   46.0000 	    1.4747 
    3.7003 	   30.7325 	   23.0000 	   46.0000 	    1.5117 
    3.7919 	   30.7515 	   23.0000 	   46.0000 	    1.5497 
    3.6698 	   30.7705 	   23.0000 	   46.0000 	    1.5877 
    3.6240 	   30.7890 	   23.0000 	   46.0000 	    1.6247 
    3.6088 	   30.8075 	   23.0000 	   46.0000 	    1.6617 
    3.6393 	   30.8265 	   23.0000 	   46.0000 	    1.6997 
    3.7003 	   30.8460 	   23.0000 	   46.0000 	    1.7387 
    3.6393 	   30.8655 	   23.0000 	   46.0000 	    1.7777 
    3.7003 	   30.8845 	   23.0000 	   46.0000 	    1.8157 
    3.6698 	   30.9035 	   23.0000 	   46.0000 	    1.8537 
    3.6698 	   30.9230 	   23.0000 	   46.0000 	    1.8927 
    3.7003 	   30.9415 	   23.0000 	   46.0000 	    1.9297 
    3.6851 	   30.9600 	   23.0000 	   46.0000 	    1.9667 
    3.8224 	   30.9790 	   23.0000 	   46.0000 	    2.0048 
    3.7766 	   30.9985 	   23.0000 	   46.0000 	    2.0438 
    3.8376 	   31.0190 	   23.0000 	   46.0000 	    2.0848 
    3.8224 	   31.0375 	   23.0000 	   46.0000 	    2.1218 
    3.7461 	   31.0585 	   23.0000 	   46.0000 	    2.1638 
    3.8682 	   31.0775 	   23.0000 	   46.0000 	    2.2018 
    3.8376 	   31.0960 	   23.0000 	   46.0000 	    2.2388 
    3.6698 	   31.1150 	   23.0000 	   46.0000 	    2.2768 
    3.6545 	   31.1340 	   23.0000 	   46.0000 	    2.3148 
    3.7308 	   31.1540 	   23.0000 	   46.0000 	    2.3548 
    3.7308 	   31.1730 	   23.0000 	   46.0000 	    2.3928 
    3.7461 	   31.1925 	   23.0000 	   46.0000 	    2.4318 
    3.7308 	   31.2120 	   23.0000 	   46.0000 	    2.4708 
    3.7308 	   31.2315 	   23.0000 	   46.0000 	    2.5098 
    3.7308 	   31.2505 	   23.0000 	   46.0000 	    2.5478 
    3.8376 	   31.2700 	   23.0000 	   46.0000 	    2.5868 
    3.6851 	   31.2890 	   23.0000 	   46.0000 	    2.6248 
    3.6545 	   31.3080 	   23.0000 	   46.0000 	    2.6628 
    3.7156 	   31.3275 	   23.0000 	   46.0000 	    2.7018 
    3.7766 	   31.3470 	   23.0000 	   46.0000 	    2.7408 
    3.8224 	   31.3655 	   23.0000 	   46.0000 	    2.7778 
    3.6698 	   31.3845 	   23.0000 	   46.0000 	    2.8158 
    3.8224 	   31.4035 	   23.0000 	   46.0000 	    2.8538 
    3.7308 	   31.4235 	   23.0000 	   46.0000 	    2.8938 
    3.6545 	   31.4425 	   23.0000 	   46.0000 	    2.9318 
    3.7308 	   31.4620 	   23.0000 	   46.0000 	    2.9708 
    3.7156 	   31.4805 	   23.0000 	   46.0000 	    3.0078 
    3.7766 	   31.4995 	   23.0000 	   46.0000 	    3.0458 
    3.7156 	   31.5185 	   23.0000 	   46.0000 	    3.0838 
    3.5630 	   31.5375 	   23.0000 	   46.0000 	    3.1218 
    3.6698 	   31.5565 	   23.0000 	   46.0000 	    3.1598 
    3.6545 	   31.5750 	   23.0000 	   46.0000 	    3.1968 
    3.9292 	   31.5945 	   23.0000 	   46.0000 	    3.2358 
    3.7461 	   31.6130 	   23.0000 	   46.0000 	    3.2728 
    3.7613 	   31.6335 	   23.0000 	   46.0000 	    3.3138 
    3.6698 	   31.6535 	   23.0000 	   46.0000 	    3.3538 
    3.6851 	   31.6730 	   23.0000 	   46.0000 	    3.3928 
    3.7919 	   31.6920 	   23.0000 	   46.0000 	    3.4308 
    3.8224 	   31.7105 	   23.0000 	   46.0000 	    3.4678 
    3.8834 	   31.7300 	   23.0000 	   46.0000 	    3.5068 
    3.7919 	   31.7500 	   23.0000 	   46.0000 	    3.5468 
    3.8224 	   31.7685 	   23.0000 	   46.0000 	    3.5838 
    3.8682 	   31.7875 	   23.0000 	   46.0000 	    3.6218 
    3.8224 	   31.8070 	   23.0000 	   46.0000 	    3.6608 
    3.8071 	   31.8270 	   23.0000 	   46.0000 	    3.7008 
    3.9139 	   31.8465 	   23.0000 	   46.0000 	    3.7398 
    3.7919 	   31.8665 	   23.0000 	   46.0000 	    3.7799 
    3.7613 	   31.8855 	   23.0000 	   46.0000 	    3.8179 
    4.0208 	   31.9040 	   23.0000 	   46.0000 	    3.8549 
    3.8529 	   31.9220 	   23.0000 	   46.0000 	    3.8909 
    3.7003 	   31.9425 	   23.0000 	   46.0000 	    3.9319 
    3.8071 	   31.9615 	   23.0000 	   46.0000 	    3.9699 
    3.8376 	   31.9810 	   23.0000 	   46.0000 	    4.0089 
    3.8071 	   31.9995 	   23.0000 	   46.0000 	    4.0459 
    3.8071 	   32.0180 	   23.0000 	   46.0000 	    4.0829 
    3.9597 	   32.0370 	   23.0000 	   46.0000 	    4.1209 
    3.9902 	   32.0575 	   23.0000 	   46.0000 	    4.1619 
    3.7613 	   32.0760 	   23.0000 	   46.0000 	    4.1989 
    3.7919 	   32.0955 	   23.0000 	   46.0000 	    4.2379 
    3.9139 	   32.1140 	   23.0000 	   46.0000 	    4.2749 
    3.9292 	   32.1325 	   23.0000 	   46.0000 	    4.3119 
    3.8529 	   32.1515 	   23.0000 	   46.0000 	    4.3499 
    3.9445 	   32.1715 	   23.0000 	   46.0000 	    4.3899 
    3.8376 	   32.1905 	   23.0000 	   46.0000 	    4.4279 
    3.8376 	   32.2090 	   23.0000 	   46.0000 	    4.4649 
    3.8834 	   32.2285 	   23.0000 	   46.0000 	    4.5039 
    3.6393 	   32.2480 	   23.0000 	   46.0000 	    4.5429 
    3.9445 	   32.2670 	   23.0000 	   46.0000 	    4.5809 
    3.8376 	   32.2860 	   23.0000 	   46.0000 	    4.6189 
    3.8071 	   32.3055 	   23.0000 	   46.0000 	    4.6579 
    3.9750 	   32.3255 	   23.0000 	   46.0000 	    4.6979 
    3.8834 	   32.3455 	   23.0000 	   46.0000 	    4.7379 
    3.9292 	   32.3655 	   23.0000 	   46.0000 	    4.7779 
    3.9597 	   32.3840 	   23.0000 	   46.0000 	    4.8149 
    3.8834 	   32.4030 	   23.0000 	   46.0000 	    4.8529 
    3.8834 	   32.4220 	   23.0000 	   46.0000 	    4.8909 
    3.8987 	   32.4410 	   23.0000 	   46.0000 	    4.9289 
    3.9902 	   32.4605 	   23.0000 	   46.0000 	    4.9679 
    3.9750 	   32.4800 	   23.0000 	   46.0000 	    5.0069 
    3.5935 	   32.5000 	   23.0000 	   46.0000 	    5.0469 
    3.7919 	   32.5195 	   23.0000 	   46.0000 	    5.0859 
    3.9292 	   32.5390 	   23.0000 	   46.0000 	    5.1249 
    3.8376 	   32.5585 	   23.0000 	   46.0000 	    5.1639 
    3.8529 	   32.5785 	   23.0000 	   46.0000 	    5.2039 
    3.7613 	   32.5970 	   23.0000 	   46.0000 	    5.2409 
    3.8834 	   32.6160 	   23.0000 	   46.0000 	    5.2789 
    3.7766 	   32.6345 	   23.0000 	   46.0000 	    5.3159 
    3.9902 	   32.6550 	   23.0000 	   46.0000 	    5.3569 
    3.5630 	   32.6745 	   23.0000 	   46.0000 	    5.3959 
    3.9597 	   32.6940 	   23.0000 	   46.0000 	    5.4349 
    4.0360 	   32.7135 	   23.0000 	   46.0000 	    5.4739 
    3.8529 	   32.7330 	   23.0000 	   46.0000 	    5.5130 
    3.8682 	   32.7525 	   23.0000 	   46.0000 	    5.5520 
    3.8682 	   32.7725 	   23.0000 	   46.0000 	    5.5920 
    3.9597 	   32.7925 	   23.0000 	   46.0000 	    5.6320 
    3.8071 	   32.8105 	   23.0000 	   46.0000 	    5.6680 
    3.8224 	   32.8305 	   23.0000 	   46.0000 	    5.7080 
    3.8376 	   32.8500 	   23.0000 	   46.0000 	    5.7470 
    3.9445 	   32.8695 	   23.0000 	   46.0000 	    5.7860 
    3.9445 	   32.8885 	   23.0000 	   46.0000 	    5.8240 
    3.9292 	   32.9075 	   23.0000 	   46.0000 	    5.8620 
    3.8834 	   32.9270 	   23.0000 	   46.0000 	    5.9010 
    3.8529 	   32.9470 	   23.0000 	   46.0000 	    5.9410 
    3.8529 	   32.9655 	   23.0000 	   46.0000 	    5.9780 
    4.0360 	   32.9840 	   23.0000 	   46.0000 	    6.0150 
    3.8529 	   33.0015 	   23.0000 	   46.0000 	    6.0500 
    3.8987 	   33.0200 	   23.0000 	   46.0000 	    6.0870 
    3.8682 	   33.0410 	   23.0000 	   46.0000 	    6.1290 
    3.9445 	   33.0605 	   23.0000 	   46.0000 	    6.1680 
    4.0513 	   33.0800 	   23.0000 	   46.0000 	    6.2070 
    3.8376 	   33.1005 	   23.0000 	   46.0000 	    6.2480 
    3.9750 	   33.1190 	   23.0000 	   46.0000 	    6.2850 
    3.8529 	   33.1385 	   23.0000 	   46.0000 	    6.3240 
    3.9292 	   33.1580 	   23.0000 	   46.0000 	    6.3630 
    3.8224 	   33.1770 	   23.0000 	   46.0000 	    6.4010 
    3.7003 	   33.1965 	   23.0000 	   46.0000 	    6.4400 
    3.9292 	   33.2160 	   23.0000 	   46.0000 	    6.4790 
    3.9445 	   33.2355 	   23.0000 	   46.0000 	    6.5180 
    3.9597 	   33.2545 	   23.0000 	   46.0000 	    6.5560 
    4.0208 	   33.2740 	   23.0000 	   46.0000 	    6.5950 
    3.8682 	   33.2930 	   23.0000 	   46.0000 	    6.6330 
    3.8987 	   33.3120 	   23.0000 	   46.0000 	    6.6710 
    3.9597 	   33.3315 	   23.0000 	   46.0000 	    6.7100 
    3.9902 	   33.3510 	   23.0000 	   46.0000 	    6.7490 
    3.8987 	   33.3710 	   23.0000 	   46.0000 	    6.7890 
    3.8987 	   33.3900 	   23.0000 	   46.0000 	    6.8270 
    4.0665 	   33.4085 	   23.0000 	   46.0000 	    6.8640 
    3.9139 	   33.4290 	   23.0000 	   46.0000 	    6.9050 
    3.8529 	   33.4490 	   23.0000 	   46.0000 	    6.9450 
    4.0513 	   33.4680 	   23.0000 	   46.0000 	    6.9830 
    4.0055 	   33.4880 	   23.0000 	   46.0000 	    7.0230 
    4.0208 	   33.5065 	   23.0000 	   46.0000 	    7.0600 
    4.0055 	   33.5245 	   23.0000 	   46.0000 	    7.0960 
    3.9292 	   33.5430 	   23.0000 	   46.0000 	    7.1330 
    3.8529 	   33.5625 	   23.0000 	   46.0000 	    7.1720 
    3.9902 	   33.5820 	   23.0000 	   46.0000 	    7.2110 
    4.2191 	   33.6010 	   23.0000 	   46.0000 	    7.2491 
    4.0513 	   33.6200 	   23.0000 	   46.0000 	    7.2871 
    3.5782 	   33.6425 	   23.0000 	   46.0000 	    7.3321 
    3.7461 	   33.6610 	   23.0000 	   46.0000 	    7.3691 
    4.0665 	   33.6815 	   23.0000 	   46.0000 	    7.4101 
    4.0513 	   33.7000 	   23.0000 	   46.0000 	    7.4471 
    3.8529 	   33.7185 	   23.0000 	   46.0000 	    7.4841 
    4.0360 	   33.7385 	   23.0000 	   46.0000 	    7.5241 
    4.0208 	   33.7565 	   23.0000 	   46.0000 	    7.5601 
    4.1123 	   33.7755 	   23.0000 	   46.0000 	    7.5981 
    4.1123 	   33.7940 	   23.0000 	   46.0000 	    7.6351 
    4.0970 	   33.8145 	   23.0000 	   46.0000 	    7.6761 
    4.0208 	   33.8335 	   23.0000 	   46.0000 	    7.7141 
    4.1581 	   33.8530 	   23.0000 	   46.0000 	    7.7531 
    4.1581 	   33.8720 	   23.0000 	   46.0000 	    7.7911 
    3.9750 	   33.8910 	   23.0000 	   46.0000 	    7.8291 
    4.0360 	   33.9110 	   23.0000 	   46.0000 	    7.8691 
    4.0360 	   33.9305 	   23.0000 	   46.0000 	    7.9081 
    3.9750 	   33.9495 	   23.0000 	   46.0000 	    7.9461 
    4.0665 	   33.9685 	   23.0000 	   46.0000 	    7.9841 
    4.1123 	   33.9890 	   23.0000 	   46.0000 	    8.0241 
    4.0818 	   34.0075 	   23.0000 	   46.0000 	    8.0611 
    4.0665 	   34.0265 	   23.0000 	   46.0000 	    8.0991 
    4.0360 	   34.0470 	   23.0000 	   46.0000 	    8.1401 
    4.1428 	   34.0665 	   23.0000 	   46.0000 	    8.1791 
    4.1123 	   34.0860 	   23.0000 	   46.0000 	    8.2181 
    4.0818 	   34.1050 	   23.0000 	   46.0000 	    8.2561 
    4.0665 	   34.1240 	   23.0000 	   46.0000 	    8.2941 
    3.9750 	   34.1435 	   23.0000 	   46.0000 	    8.3331 
    4.1123 	   34.1635 	   23.0000 	   46.0000 	    8.3731 
    4.0818 	   34.1830 	   23.0000 	   46.0000 	    8.4121 
    4.0360 	   34.2020 	   23.0000 	   46.0000 	    8.4501 
    4.1276 	   34.2220 	   23.0000 	   46.0000 	    8.4901 
    4.0513 	   34.2410 	   23.0000 	   46.0000 	    8.5281 
    3.9902 	   34.2600 	   23.0000 	   46.0000 	    8.5661 
    4.0513 	   34.2790 	   23.0000 	   46.0000 	    8.6041 
    4.0818 	   34.2995 	   23.0000 	   46.0000 	    8.6451 
    4.1276 	   34.3190 	   23.0000 	   46.0000 	    8.6841 
    4.0513 	   34.3375 	   23.0000 	   46.0000 	    8.7211 
    4.0970 	   34.3575 	   23.0000 	   46.0000 	    8.7611 
    4.1276 	   34.3765 	   23.0000 	   46.0000 	    8.7991 
    4.1733 	   34.3955 	   23.0000 	   46.0000 	    8.8371 
    4.1276 	   34.4160 	   23.0000 	   46.0000 	    8.8781 
    4.0818 	   34.4360 	   23.0000 	   46.0000 	    8.9181 
    4.0055 	   34.4555 	   23.0000 	   46.0000 	    8.9571 
    4.0818 	   34.4750 	   23.0000 	   46.0000 	    8.9962 
    4.1733 	   34.4945 	   23.0000 	   46.0000 	    9.0352 
    4.1886 	   34.5140 	   23.0000 	   46.0000 	    9.0742 
    4.2496 	   34.5340 	   23.0000 	   46.0000 	    9.1142 
    4.1123 	   34.5540 	   23.0000 	   46.0000 	    9.1542 
    4.2496 	   34.5735 	   23.0000 	   46.0000 	    9.1932 
    4.1581 	   34.5925 	   23.0000 	   46.0000 	    9.2312 
    4.2496 	   34.6120 	   23.0000 	   46.0000 	    9.2702 
    4.0055 	   34.6315 	   23.0000 	   46.0000 	    9.3092 
    4.0665 	   34.6510 	   23.0000 	   46.0000 	    9.3482 
    4.0055 	   34.6700 	   23.0000 	   46.0000 	    9.3862 
    4.2039 	   34.6900 	   23.0000 	   46.0000 	    9.4262 
    4.2496 	   34.7080 	   23.0000 	   46.0000 	    9.4622 
    4.1581 	   34.7285 	   23.0000 	   46.0000 	    9.5032 
    4.1276 	   34.7490 	   23.0000 	   46.0000 	    9.5442 
    4.2039 	   34.7675 	   23.0000 	   46.0000 	    9.5812 
    4.1733 	   34.7870 	   23.0000 	   46.0000 	    9.6202 
    4.0208 	   34.8065 	   23.0000 	   46.0000 	    9.6592 
    4.0665 	   34.8270 	   23.0000 	   46.0000 	    9.7002 
    4.0970 	   34.8465 	   23.0000 	   46.0000 	    9.7392 
    3.9139 	   34.8660 	   23.0000 	   46.0000 	    9.7782 
    4.1428 	   34.8855 	   23.0000 	   46.0000 	    9.8172 
    4.1428 	   34.9045 	   23.0000 	   46.0000 	    9.8552 
    4.2191 	   34.9215 	   23.0000 	   46.0000 	    9.8892 
    4.1733 	   34.9420 	   23.0000 	   46.0000 	    9.9302 
    4.2954 	   34.9605 	   23.0000 	   46.0000 	    9.9672 
    4.1581 	   34.9775 	   23.0000 	   46.0000 	   10.0012 
    4.2954 	   34.9950 	   23.0000 	   46.0000 	   10.0362 
    4.3259 	   35.0130 	   23.0000 	   46.0000 	   10.0722 
    4.1733 	   35.0305 	   23.0000 	   46.0000 	   10.1072 
    3.8529 	   35.0690 	   23.0000 	   46.0000 	   10.1842 
    3.9597 	   35.0860 	   23.0000 	   46.0000 	   10.2182 
    4.0665 	   35.1035 	   23.0000 	   46.0000 	   10.2532 
    4.2191 	   35.1210 	   23.0000 	   46.0000 	   10.2882 
    4.3565 	   35.1380 	   23.0000 	   46.0000 	   10.3222 
    4.1276 	   35.1570 	   23.0000 	   46.0000 	   10.3602 
    4.1428 	   35.1755 	   23.0000 	   46.0000 	   10.3972 
    4.3717 	   35.1930 	   23.0000 	   46.0000 	   10.4322 
    4.1428 	   35.2120 	   23.0000 	   46.0000 	   10.4702 
    4.3870 	   35.2315 	   23.0000 	   46.0000 	   10.5092 
    4.3565 	   35.2505 	   23.0000 	   46.0000 	   10.5472 
    4.1886 	   35.2695 	   23.0000 	   46.0000 	   10.5852 
    4.2191 	   35.2895 	   23.0000 	   46.0000 	   10.6252 
    4.0970 	   35.3090 	   23.0000 	   46.0000 	   10.6642 
    4.0818 	   35.3300 	   23.0000 	   46.0000 	   10.7062 
    4.2191 	   35.3490 	   23.0000 	   46.0000 	   10.7443 
    4.2802 	   35.3680 	   23.0000 	   46.0000 	   10.7823 
    4.2344 	   35.3875 	   23.0000 	   46.0000 	   10.8213 
    4.3565 	   35.4075 	   23.0000 	   46.0000 	   10.8613 
    4.2039 	   35.4265 	   23.0000 	   46.0000 	   10.8993 
    4.2039 	   35.4460 	   23.0000 	   46.0000 	   10.9383 
    4.2039 	   35.4660 	   23.0000 	   46.0000 	   10.9783 
    4.2191 	   35.4860 	   23.0000 	   46.0000 	   11.0183 
    4.0970 	   35.5055 	   23.0000 	   46.0000 	   11.0573 
    4.1581 	   35.5250 	   23.0000 	   46.0000 	   11.0963 
    4.3565 	   35.5450 	   23.0000 	   46.0000 	   11.1363 
    4.2802 	   35.5645 	   23.0000 	   46.0000 	   11.1753 
    4.2802 	   35.5840 	   23.0000 	   46.0000 	   11.2143 
    4.1123 	   35.6060 	   23.0000 	   46.0000 	   11.2583 
    4.2954 	   35.6255 	   23.0000 	   46.0000 	   11.2973 
    4.2954 	   35.6450 	   23.0000 	   46.0000 	   11.3363 
    4.2649 	   35.6635 	   23.0000 	   46.0000 	   11.3733 
    4.1886 	   35.6830 	   23.0000 	   46.0000 	   11.4123 
    4.1428 	   35.7020 	   23.0000 	   46.0000 	   11.4503 
    4.2191 	   35.7220 	   23.0000 	   46.0000 	   11.4903 
    4.2954 	   35.7410 	   23.0000 	   46.0000 	   11.5283 
    4.2344 	   35.7615 	   23.0000 	   46.0000 	   11.5693 
    4.3259 	   35.7810 	   23.0000 	   46.0000 	   11.6083 
    4.2802 	   35.8060 	   23.0000 	   46.0000 	   11.6583 
    4.3412 	   35.8265 	   23.0000 	   46.0000 	   11.6993 
    4.2344 	   35.8460 	   23.0000 	   46.0000 	   11.7383 
    4.2802 	   35.8655 	   23.0000 	   46.0000 	   11.7773 
    4.4022 	   35.8835 	   23.0000 	   46.0000 	   11.8133 
    4.2344 	   35.9030 	   23.0000 	   46.0000 	   11.8523 
    4.2191 	   35.9245 	   23.0000 	   46.0000 	   11.8953 
    4.2802 	   35.9435 	   23.0000 	   46.0000 	   11.9333 
    4.2344 	   35.9630 	   23.0000 	   46.0000 	   11.9723 
    4.3565 	   35.9820 	   23.0000 	   46.0000 	   12.0103 
    4.2649 	   36.0020 	   23.0000 	   46.0000 	   12.0503 
    4.1733 	   36.0210 	   23.0000 	   46.0000 	   12.0883 
    4.4480 	   36.0420 	   23.0000 	   46.0000 	   12.1303 
    4.2802 	   36.0610 	   23.0000 	   46.0000 	   12.1683 
    4.3412 	   36.0805 	   23.0000 	   46.0000 	   12.2073 
    4.2954 	   36.1000 	   23.0000 	   46.0000 	   12.2463 
    4.3259 	   36.1190 	   23.0000 	   46.0000 	   12.2843 
    4.4480 	   36.1385 	   23.0000 	   46.0000 	   12.3233 
    4.3107 	   36.1580 	   23.0000 	   46.0000 	   12.3623 
    4.2649 	   36.1785 	   23.0000 	   46.0000 	   12.4033 
    4.1733 	   36.1970 	   23.0000 	   46.0000 	   12.4403 
    4.4327 	   36.2170 	   23.0000 	   46.0000 	   12.4803 
    4.3259 	   36.2380 	   23.0000 	   46.0000 	   12.5224 
    4.2649 	   36.2580 	   23.0000 	   46.0000 	   12.5624 
    4.3717 	   36.2775 	   23.0000 	   46.0000 	   12.6014 
    4.3107 	   36.2975 	   23.0000 	   46.0000 	   12.6414 
    4.4022 	   36.3175 	   23.0000 	   46.0000 	   12.6814 
    4.0513 	   36.3380 	   23.0000 	   46.0000 	   12.7224 
    4.3259 	   36.3580 	   23.0000 	   46.0000 	   12.7624 
    4.4327 	   36.3765 	   23.0000 	   46.0000 	   12.7994 
    4.4022 	   36.3960 	   23.0000 	   46.0000 	   12.8384 
    4.2802 	   36.4160 	   23.0000 	   46.0000 	   12.8784 
    4.3259 	   36.4355 	   23.0000 	   46.0000 	   12.9174 
    4.2954 	   36.4550 	   23.0000 	   46.0000 	   12.9564 
    4.1123 	   36.4745 	   23.0000 	   46.0000 	   12.9954 
    4.4327 	   36.4940 	   23.0000 	   46.0000 	   13.0344 
    4.2802 	   36.5140 	   23.0000 	   46.0000 	   13.0744 
    4.3412 	   36.5335 	   23.0000 	   46.0000 	   13.1134 
    4.3107 	   36.5530 	   23.0000 	   46.0000 	   13.1524 
    4.2039 	   36.5735 	   23.0000 	   46.0000 	   13.1934 
    4.3259 	   36.5940 	   23.0000 	   46.0000 	   13.2344 
    4.3107 	   36.6130 	   23.0000 	   46.0000 	   13.2724 
    4.2954 	   36.6330 	   23.0000 	   46.0000 	   13.3124 
    4.4327 	   36.6520 	   23.0000 	   46.0000 	   13.3504 
    4.4327 	   36.6720 	   23.0000 	   46.0000 	   13.3904 
    4.3259 	   36.6920 	   23.0000 	   46.0000 	   13.4304 
    4.4480 	   36.7130 	   23.0000 	   46.0000 	   13.4724 
    4.4175 	   36.7330 	   23.0000 	   46.0000 	   13.5124 
    4.4175 	   36.7515 	   23.0000 	   46.0000 	   13.5494 
    4.4480 	   36.7720 	   23.0000 	   46.0000 	   13.5904 
    4.4022 	   36.7915 	   23.0000 	   46.0000 	   13.6294 
    4.4480 	   36.8125 	   23.0000 	   46.0000 	   13.6714 
    4.2496 	   36.8330 	   23.0000 	   46.0000 	   13.7124 
    4.1733 	   36.8525 	   23.0000 	   46.0000 	   13.7514 
    4.4175 	   36.8715 	   23.0000 	   46.0000 	   13.7894 
    4.4938 	   36.8920 	   23.0000 	   46.0000 	   13.8304 
    4.3412 	   36.9120 	   23.0000 	   46.0000 	   13.8704 
    4.1886 	   36.9325 	   23.0000 	   46.0000 	   13.9114 
    4.4785 	   36.9515 	   23.0000 	   46.0000 	   13.9494 
    4.3870 	   36.9715 	   23.0000 	   46.0000 	   13.9894 
    4.4785 	   36.9915 	   23.0000 	   46.0000 	   14.0294 
    4.3259 	   37.0120 	   23.0000 	   46.0000 	   14.0704 
    4.4633 	   37.0310 	   23.0000 	   46.0000 	   14.1084 
    4.3259 	   37.0520 	   23.0000 	   46.0000 	   14.1504 
    4.3412 	   37.0720 	   23.0000 	   46.0000 	   14.1904 
    4.4633 	   37.0925 	   23.0000 	   46.0000 	   14.2314 
    4.3717 	   37.1120 	   23.0000 	   46.0000 	   14.2705 
    4.5548 	   37.1315 	   23.0000 	   46.0000 	   14.3095 
    4.4327 	   37.1510 	   23.0000 	   46.0000 	   14.3485 
    4.3870 	   37.1725 	   23.0000 	   46.0000 	   14.3915 
    4.4938 	   37.1925 	   23.0000 	   46.0000 	   14.4315 
    4.4480 	   37.2125 	   23.0000 	   46.0000 	   14.4715 
    4.4785 	   37.2320 	   23.0000 	   46.0000 	   14.5105 
    4.4785 	   37.2515 	   23.0000 	   46.0000 	   14.5495 
    4.4633 	   37.2715 	   23.0000 	   46.0000 	   14.5895 
    4.3412 	   37.2915 	   23.0000 	   46.0000 	   14.6295 
    4.4175 	   37.3110 	   23.0000 	   46.0000 	   14.6685 
    4.4480 	   37.3310 	   23.0000 	   46.0000 	   14.7085 
    4.4175 	   37.3505 	   23.0000 	   46.0000 	   14.7475 
    4.4022 	   37.3705 	   23.0000 	   46.0000 	   14.7875 
    4.3717 	   37.3900 	   23.0000 	   46.0000 	   14.8265 
    4.5396 	   37.4095 	   23.0000 	   46.0000 	   14.8655 
    4.3870 	   37.4280 	   23.0000 	   46.0000 	   14.9025 
    4.4785 	   37.4475 	   23.0000 	   46.0000 	   14.9415 
    4.5396 	   37.4670 	   23.0000 	   46.0000 	   14.9805 
    4.5396 	   37.4860 	   23.0000 	   46.0000 	   15.0185 
    4.4938 	   37.5050 	   23.0000 	   46.0000 	   15.0565 
    4.4175 	   37.5240 	   23.0000 	   46.0000 	   15.0945 
    4.5090 	   37.5435 	   23.0000 	   46.0000 	   15.1335 
    4.4938 	   37.5630 	   23.0000 	   46.0000 	   15.1725 
    4.4785 	   37.5835 	   23.0000 	   46.0000 	   15.2135 
    4.4938 	   37.6030 	   23.0000 	   46.0000 	   15.2525 
    4.4175 	   37.6220 	   23.0000 	   46.0000 	   15.2905 
    4.4327 	   37.6420 	   23.0000 	   46.0000 	   15.3305 
    4.3717 	   37.6610 	   23.0000 	   46.0000 	   15.3685 
    4.5090 	   37.6800 	   23.0000 	   46.0000 	   15.4065 
    4.5243 	   37.7005 	   23.0000 	   46.0000 	   15.4475 
    4.4785 	   37.7200 	   23.0000 	   46.0000 	   15.4865 
    4.4480 	   37.7400 	   23.0000 	   46.0000 	   15.5265 
    4.4938 	   37.7585 	   23.0000 	   46.0000 	   15.5635 
    4.4938 	   37.7775 	   23.0000 	   46.0000 	   15.6015 
    4.5701 	   37.7975 	   23.0000 	   46.0000 	   15.6415 
    4.3717 	   37.8180 	   23.0000 	   46.0000 	   15.6825 
    4.5396 	   37.8365 	   23.0000 	   46.0000 	   15.7195 
    4.4175 	   37.8535 	   23.0000 	   46.0000 	   15.7535 
    4.4633 	   37.8725 	   23.0000 	   46.0000 	   15.7915 
    4.3107 	   37.8910 	   23.0000 	   46.0000 	   15.8285 
    4.5090 	   37.9125 	   23.0000 	   46.0000 	   15.8715 
    4.2649 	   37.9320 	   23.0000 	   46.0000 	   15.9105 
    4.5090 	   37.9510 	   23.0000 	   46.0000 	   15.9485 
    4.5090 	   37.9705 	   23.0000 	   46.0000 	   15.9876 
    4.4785 	   37.9895 	   23.0000 	   46.0000 	   16.0256 
    4.4633 	   38.0090 	   23.0000 	   46.0000 	   16.0646 
    4.5701 	   38.0260 	   23.0000 	   46.0000 	   16.0986 
    4.3717 	   38.0470 	   23.0000 	   46.0000 	   16.1406 
    4.4938 	   38.0665 	   23.0000 	   46.0000 	   16.1796 
    4.6616 	   38.0855 	   23.0000 	   46.0000 	   16.2176 
    4.5548 	   38.1050 	   23.0000 	   46.0000 	   16.2566 
    4.5548 	   38.1265 	   23.0000 	   46.0000 	   16.2996 
    4.5701 	   38.1465 	   23.0000 	   46.0000 	   16.3396 
    4.4633 	   38.1655 	   23.0000 	   46.0000 	   16.3776 
    4.5853 	   38.1845 	   23.0000 	   46.0000 	   16.4156 
    4.4938 	   38.2045 	   23.0000 	   46.0000 	   16.4556 
    4.7074 	   38.2235 	   23.0000 	   46.0000 	   16.4936 
    4.5701 	   38.2445 	   23.0000 	   46.0000 	   16.5356 
    4.5090 	   38.2665 	   23.0000 	   46.0000 	   16.5796 
    4.4327 	   38.2855 	   23.0000 	   46.0000 	   16.6176 
    4.6616 	   38.3045 	   23.0000 	   46.0000 	   16.6556 
    4.6464 	   38.3240 	   23.0000 	   46.0000 	   16.6946 
    4.6769 	   38.3435 	   23.0000 	   46.0000 	   16.7336 
    4.2802 	   38.3630 	   23.0000 	   46.0000 	   16.7726 
    4.5090 	   38.3840 	   23.0000 	   46.0000 	   16.8146 
    4.4938 	   38.4025 	   23.0000 	   46.0000 	   16.8516 
    4.4785 	   38.4225 	   23.0000 	   46.0000 	   16.8916 
    4.6311 	   38.4430 	   23.0000 	   46.0000 	   16.9326 
    4.6769 	   38.4630 	   23.0000 	   46.0000 	   16.9726 
    4.6006 	   38.4810 	   23.0000 	   46.0000 	   17.0086 
    4.6159 	   38.4990 	   23.0000 	   46.0000 	   17.0446 
    4.5853 	   38.5165 	   23.0000 	   46.0000 	   17.0796 
    4.5701 	   38.5340 	   23.0000 	   46.0000 	   17.1146 
    4.5853 	   38.5515 	   23.0000 	   46.0000 	   17.1496 
    4.5701 	   38.5700 	   23.0000 	   46.0000 	   17.1866 
    4.7227 	   38.5870 	   23.0000 	   46.0000 	   17.2206 
    4.5548 	   38.6060 	   23.0000 	   46.0000 	   17.2586 
    4.6159 	   38.6255 	   23.0000 	   46.0000 	   17.2976 
    4.6311 	   38.6450 	   23.0000 	   46.0000 	   17.3366 
    4.5090 	   38.6640 	   23.0000 	   46.0000 	   17.3746 
    4.6464 	   38.6840 	   23.0000 	   46.0000 	   17.4146 
    4.8142 	   38.7035 	   23.0000 	   46.0000 	   17.4536 
    4.5853 	   38.7235 	   23.0000 	   46.0000 	   17.4936 
    4.6769 	   38.7450 	   23.0000 	   46.0000 	   17.5366 
    4.8295 	   38.7645 	   23.0000 	   46.0000 	   17.5756 
    4.6769 	   38.7850 	   23.0000 	   46.0000 	   17.6166 
    4.6464 	   38.8060 	   23.0000 	   46.0000 	   17.6586 
    4.7379 	   38.8280 	   23.0000 	   46.0000 	   17.7026 
    4.7074 	   38.8490 	   23.0000 	   46.0000 	   17.7447 
    4.6616 	   38.8685 	   23.0000 	   46.0000 	   17.7837 
    4.8295 	   38.8880 	   23.0000 	   46.0000 	   17.8227 
    4.6769 	   38.9075 	   23.0000 	   46.0000 	   17.8617 
    4.6769 	   38.9275 	   23.0000 	   46.0000 	   17.9017 
    4.6921 	   38.9480 	   23.0000 	   46.0000 	   17.9427 
    4.5243 	   38.9675 	   23.0000 	   46.0000 	   17.9817 
    4.2344 	   38.9860 	   23.0000 	   46.0000 	   18.0187 
    4.6311 	   39.0055 	   23.0000 	   46.0000 	   18.0577 
    4.6921 	   39.0250 	   23.0000 	   46.0000 	   18.0967 
    4.7074 	   39.0465 	   23.0000 	   46.0000 	   18.1397 
    4.6464 	   39.0670 	   23.0000 	   46.0000 	   18.1807 
    4.6769 	   39.0865 	   23.0000 	   46.0000 	   18.2197 
    4.5548 	   39.1065 	   23.0000 	   46.0000 	   18.2597 
    4.6616 	   39.1270 	   23.0000 	   46.0000 	   18.3007 
    4.6311 	   39.1470 	   23.0000 	   46.0000 	   18.3407 
    4.6006 	   39.1685 	   23.0000 	   46.0000 	   18.3837 
    4.5853 	   39.1880 	   23.0000 	   46.0000 	   18.4227 
    4.5243 	   39.2075 	   23.0000 	   46.0000 	   18.4617 
    4.7074 	   39.2285 	   23.0000 	   46.0000 	   18.5037 
    4.7532 	   39.2485 	   23.0000 	   46.0000 	   18.5437 
    4.6159 	   39.2695 	   23.0000 	   46.0000 	   18.5857 
    4.6464 	   39.2895 	   23.0000 	   46.0000 	   18.6257 
    4.7837 	   39.3090 	   23.0000 	   46.0000 	   18.6647 
    4.6311 	   39.3300 	   23.0000 	   46.0000 	   18.7067 
    4.6311 	   39.3490 	   23.0000 	   46.0000 	   18.7447 
    4.7379 	   39.3695 	   23.0000 	   46.0000 	   18.7857 
    4.6006 	   39.3895 	   23.0000 	   46.0000 	   18.8257 
    4.6311 	   39.4100 	   23.0000 	   46.0000 	   18.8667 
    4.7074 	   39.4305 	   23.0000 	   46.0000 	   18.9077 
    4.6006 	   39.4505 	   23.0000 	   46.0000 	   18.9477 
    4.7227 	   39.4705 	   23.0000 	   46.0000 	   18.9877 
    4.8447 	   39.4915 	   23.0000 	   46.0000 	   19.0297 
    4.7379 	   39.5110 	   23.0000 	   46.0000 	   19.0687 
    4.4480 	   39.5310 	   23.0000 	   46.0000 	   19.1087 
    4.7684 	   39.5515 	   23.0000 	   46.0000 	   19.1497 
    4.7684 	   39.5705 	   23.0000 	   46.0000 	   19.1877 
    4.7379 	   39.5900 	   23.0000 	   46.0000 	   19.2267 
    4.7074 	   39.6100 	   23.0000 	   46.0000 	   19.2667 
    4.6311 	   39.6305 	   23.0000 	   46.0000 	   19.3077 
    4.7074 	   39.6510 	   23.0000 	   46.0000 	   19.3487 
    4.6616 	   39.6705 	   23.0000 	   46.0000 	   19.3877 
    4.7074 	   39.6920 	   23.0000 	   46.0000 	   19.4307 
    4.6006 	   39.7110 	   23.0000 	   46.0000 	   19.4687 
    4.7532 	   39.7310 	   23.0000 	   46.0000 	   19.5088 
    4.7837 	   39.7520 	   23.0000 	   46.0000 	   19.5508 
    4.7379 	   39.7710 	   23.0000 	   46.0000 	   19.5888 
    4.6769 	   39.7920 	   23.0000 	   46.0000 	   19.6308 
    4.7532 	   39.8115 	   23.0000 	   46.0000 	   19.6698 
    4.7532 	   39.8315 	   23.0000 	   46.0000 	   19.7098 
    4.8905 	   39.8510 	   23.0000 	   46.0000 	   19.7488 
    4.8447 	   39.8710 	   23.0000 	   46.0000 	   19.7888 
    4.6464 	   39.8900 	   23.0000 	   46.0000 	   19.8268 
    4.6921 	   39.9110 	   23.0000 	   46.0000 	   19.8688 
    4.6006 	   39.9310 	   23.0000 	   46.0000 	   19.9088 
    4.6311 	   39.9505 	   23.0000 	   46.0000 	   19.9478 
    4.8447 	   39.9710 	   23.0000 	   46.0000 	   19.9888 
    4.8295 	   39.9915 	   23.0000 	   46.0000 	   20.0298 
    4.7379 	   40.0110 	   23.0000 	   46.0000 	   20.0688 
    4.7227 	   40.0305 	   23.0000 	   46.0000 	   20.1078 
    4.9516 	   40.0530 	   23.0000 	   46.0000 	   20.1528 
    4.9821 	   40.0725 	   23.0000 	   46.0000 	   20.1918 
    4.9668 	   40.0940 	   23.0000 	   46.0000 	   20.2348 
    4.7532 	   40.1145 	   23.0000 	   46.0000 	   20.2758 
    4.5090 	   40.1350 	   23.0000 	   46.0000 	   20.3168 
    4.7227 	   40.1550 	   23.0000 	   46.0000 	   20.3568 
    4.8142 	   40.1750 	   23.0000 	   46.0000 	   20.3968 
    4.7379 	   40.1950 	   23.0000 	   46.0000 	   20.4368 
    4.6769 	   40.2140 	   23.0000 	   46.0000 	   20.4748 
    4.5701 	   40.2335 	   23.0000 	   46.0000 	   20.5138 
    4.6769 	   40.2535 	   23.0000 	   46.0000 	   20.5538 
    4.7990 	   40.2730 	   23.0000 	   46.0000 	   20.5928 
    4.7990 	   40.2940 	   23.0000 	   46.0000 	   20.6348 
    4.9821 	   40.3135 	   23.0000 	   46.0000 	   20.6738 
    4.8142 	   40.3335 	   23.0000 	   46.0000 	   20.7138 
    4.9210 	   40.3540 	   23.0000 	   46.0000 	   20.7548 
    4.9516 	   40.3740 	   23.0000 	   46.0000 	   20.7948 
    4.7532 	   40.3940 	   23.0000 	   46.0000 	   20.8348 
    4.8905 	   40.4140 	   23.0000 	   46.0000 	   20.8748 
    4.9363 	   40.4340 	   23.0000 	   46.0000 	   20.9148 
    4.8600 	   40.4535 	   23.0000 	   46.0000 	   20.9538 
    4.8295 	   40.4730 	   23.0000 	   46.0000 	   20.9928 
    4.9058 	   40.4935 	   23.0000 	   46.0000 	   21.0338 
    4.8600 	   40.5130 	   23.0000 	   46.0000 	   21.0728 
    4.9363 	   40.5315 	   23.0000 	   46.0000 	   21.1098 
    4.9210 	   40.5510 	   23.0000 	   46.0000 	   21.1488 
    4.9821 	   40.5705 	   23.0000 	   46.0000 	   21.1878 
    5.0126 	   40.5920 	   23.0000 	   46.0000 	   21.2309 
    4.9058 	   40.6115 	   23.0000 	   46.0000 	   21.2699 
    4.8142 	   40.6335 	   23.0000 	   46.0000 	   21.3139 
    4.8905 	   40.6545 	   23.0000 	   46.0000 	   21.3559 
    4.9973 	   40.6755 	   23.0000 	   46.0000 	   21.3979 
    4.8295 	   40.6950 	   23.0000 	   46.0000 	   21.4369 
    4.7990 	   40.7150 	   23.0000 	   46.0000 	   21.4769 
    4.8295 	   40.7350 	   23.0000 	   46.0000 	   21.5169 
    4.9210 	   40.7545 	   23.0000 	   46.0000 	   21.5559 
    4.7074 	   40.7740 	   23.0000 	   46.0000 	   21.5949 
    4.8905 	   40.7940 	   23.0000 	   46.0000 	   21.6349 
    4.8753 	   40.8140 	   23.0000 	   46.0000 	   21.6749 
    5.0584 	   40.8330 	   23.0000 	   46.0000 	   21.7129 
    4.8447 	   40.8545 	   23.0000 	   46.0000 	   21.7559 
    4.9973 	   40.8740 	   23.0000 	   46.0000 	   21.7949 
    4.7684 	   40.8945 	   23.0000 	   46.0000 	   21.8359 
    4.8600 	   40.9150 	   23.0000 	   46.0000 	   21.8769 
    4.8295 	   40.9345 	   23.0000 	   46.0000 	   21.9159 
    4.9516 	   40.9550 	   23.0000 	   46.0000 	   21.9569 
    4.8295 	   40.9755 	   23.0000 	   46.0000 	   21.9979 
    4.8142 	   40.9955 	   23.0000 	   46.0000 	   22.0379 
    4.7074 	   41.0160 	   23.0000 	   46.0000 	   22.0789 
    4.8447 	   41.0370 	   23.0000 	   46.0000 	   22.1209 
    4.8447 	   41.0580 	   23.0000 	   46.0000 	   22.1629 
    4.8753 	   41.0775 	   23.0000 	   46.0000 	   22.2019 
    4.6311 	   41.0975 	   23.0000 	   46.0000 	   22.2419 
    4.8600 	   41.1170 	   23.0000 	   46.0000 	   22.2809 
    4.9516 	   41.1360 	   23.0000 	   46.0000 	   22.3189 
    4.9210 	   41.1560 	   23.0000 	   46.0000 	   22.3589 
    4.9210 	   41.1755 	   23.0000 	   46.0000 	   22.3979 
    4.9210 	   41.1950 	   23.0000 	   46.0000 	   22.4369 
    4.9363 	   41.2150 	   23.0000 	   46.0000 	   22.4769 
    5.0126 	   41.2350 	   23.0000 	   46.0000 	   22.5169 
    4.9058 	   41.2550 	   23.0000 	   46.0000 	   22.5569 
    5.0126 	   41.2760 	   23.0000 	   46.0000 	   22.5989 
    4.8753 	   41.2950 	   23.0000 	   46.0000 	   22.6369 
    4.8447 	   41.3150 	   23.0000 	   46.0000 	   22.6769 
    4.8753 	   41.3355 	   23.0000 	   46.0000 	   22.7179 
    4.8905 	   41.3555 	   23.0000 	   46.0000 	   22.7579 
    4.9058 	   41.3765 	   23.0000 	   46.0000 	   22.7999 
    4.9668 	   41.3965 	   23.0000 	   46.0000 	   22.8399 
    4.8905 	   41.4170 	   23.0000 	   46.0000 	   22.8809 
    4.9973 	   41.4375 	   23.0000 	   46.0000 	   22.9219 
    4.9363 	   41.4580 	   23.0000 	   46.0000 	   22.9629 
    4.9973 	   41.4780 	   23.0000 	   46.0000 	   23.0030 
    4.8753 	   41.4990 	   23.0000 	   46.0000 	   23.0450 
    4.7684 	   41.5195 	   23.0000 	   46.0000 	   23.0860 
    5.1194 	   41.5395 	   23.0000 	   46.0000 	   23.1260 
    4.9210 	   41.5585 	   23.0000 	   46.0000 	   23.1640 
    4.9363 	   41.5800 	   23.0000 	   46.0000 	   23.2070 
    5.0126 	   41.6000 	   23.0000 	   46.0000 	   23.2470 
    5.0584 	   41.6210 	   23.0000 	   46.0000 	   23.2890 
    5.0278 	   41.6405 	   23.0000 	   46.0000 	   23.3280 
    4.9821 	   41.6610 	   23.0000 	   46.0000 	   23.3690 
    5.0278 	   41.6800 	   23.0000 	   46.0000 	   23.4070 
    4.9516 	   41.6995 	   23.0000 	   46.0000 	   23.4460 
    5.0278 	   41.7195 	   23.0000 	   46.0000 	   23.4850 
    5.1194 	   41.7395 	   23.0000 	   46.0000 	   23.5260 
    4.9668 	   41.7595 	   23.0000 	   46.0000 	   23.5660 
    5.0584 	   41.7785 	   23.0000 	   46.0000 	   23.6040 
    5.1041 	   41.8060 	   23.0000 	   46.0000 	   23.6590 
    4.9821 	   41.8250 	   23.0000 	   46.0000 	   23.6970 
    5.1194 	   41.8445 	   23.0000 	   46.0000 	   23.7360 
    5.0889 	   41.8650 	   23.0000 	   46.0000 	   23.7770 
    4.9363 	   41.8845 	   23.0000 	   46.0000 	   23.8160 
    5.0431 	   41.9055 	   23.0000 	   46.0000 	   23.8580 
    5.1957 	   41.9250 	   23.0000 	   46.0000 	   23.8970 
    5.0126 	   41.9465 	   23.0000 	   46.0000 	   23.9400 
    5.1041 	   41.9665 	   23.0000 	   46.0000 	   23.9800 
    5.1652 	   41.9855 	   23.0000 	   46.0000 	   24.0180 
    5.1804 	   42.0060 	   23.0000 	   46.0000 	   24.0590 
    5.0736 	   42.0265 	   23.0000 	   46.0000 	   24.1000 
    5.0584 	   42.0480 	   23.0000 	   46.0000 	   24.1430 
    5.0736 	   42.0670 	   23.0000 	   46.0000 	   24.1810 
    5.1194 	   42.0870 	   23.0000 	   46.0000 	   24.2210 
    5.0278 	   42.1050 	   23.0000 	   46.0000 	   24.2570 
    5.2262 	   42.1230 	   23.0000 	   46.0000 	   24.2930 
    5.0889 	   42.1425 	   23.0000 	   46.0000 	   24.3320 
    5.0584 	   42.1640 	   23.0000 	   46.0000 	   24.3750 
    5.0126 	   42.1845 	   23.0000 	   46.0000 	   24.4160 
    5.1499 	   42.2040 	   23.0000 	   46.0000 	   24.4550 
    5.0431 	   42.2230 	   23.0000 	   46.0000 	   24.4930 
    5.1957 	   42.2430 	   23.0000 	   46.0000 	   24.5330 
    4.9363 	   42.2625 	   23.0000 	   46.0000 	   24.5720 
    5.2720 	   42.2815 	   23.0000 	   46.0000 	   24.6100 
    5.1194 	   42.3020 	   23.0000 	   46.0000 	   24.6510 
    5.1041 	   42.3220 	   23.0000 	   46.0000 	   24.6910 
    5.1804 	   42.3415 	   23.0000 	   46.0000 	   24.7300 
    5.0584 	   42.3620 	   23.0000 	   46.0000 	   24.7711 
    5.0889 	   42.3830 	   23.0000 	   46.0000 	   24.8131 
    5.1194 	   42.4035 	   23.0000 	   46.0000 	   24.8541 
    5.1499 	   42.4240 	   23.0000 	   46.0000 	   24.8951 
    5.1347 	   42.4440 	   23.0000 	   46.0000 	   24.9351 
    4.9363 	   42.4640 	   23.0000 	   46.0000 	   24.9751 
    5.1804 	   42.4830 	   23.0000 	   46.0000 	   25.0131 
    5.1804 	   42.5035 	   23.0000 	   46.0000 	   25.0541 
    4.9668 	   42.5240 	   23.0000 	   46.0000 	   25.0951 
    4.9668 	   42.5450 	   23.0000 	   46.0000 	   25.1371 
    5.0584 	   42.5625 	   23.0000 	   46.0000 	   25.1721 
    5.1041 	   42.5810 	   23.0000 	   46.0000 	   25.2091 
    5.1194 	   42.5985 	   23.0000 	   46.0000 	   25.2441 
    5.1194 	   42.6175 	   23.0000 	   46.0000 	   25.2821 
    5.2567 	   42.6360 	   23.0000 	   46.0000 	   25.3191 
    5.1041 	   42.6540 	   23.0000 	   46.0000 	   25.3551 
    4.9363 	   42.6725 	   23.0000 	   46.0000 	   25.3921 
    4.9058 	   42.6900 	   23.0000 	   46.0000 	   25.4271 
    5.0278 	   42.7080 	   23.0000 	   46.0000 	   25.4631 
    5.0736 	   42.7265 	   23.0000 	   46.0000 	   25.4991 
    5.0278 	   42.7455 	   23.0000 	   46.0000 	   25.5371 
    5.0431 	   42.7635 	   23.0000 	   46.0000 	   25.5731 
    5.0126 	   42.7810 	   23.0000 	   46.0000 	   25.6081 
    5.0584 	   42.8060 	   23.0000 	   46.0000 	   25.6581 
    5.2720 	   42.8275 	   23.0000 	   46.0000 	   25.7011 
    5.0278 	   42.8485 	   23.0000 	   46.0000 	   25.7431 
    5.2110 	   42.8675 	   23.0000 	   46.0000 	   25.7811 
    5.1652 	   42.8885 	   23.0000 	   46.0000 	   25.8231 
    5.1499 	   42.9090 	   23.0000 	   46.0000 	   25.8641 
    5.1499 	   42.9295 	   23.0000 	   46.0000 	   25.9051 
    5.2262 	   42.9490 	   23.0000 	   46.0000 	   25.9441 
    5.0431 	   42.9685 	   23.0000 	   46.0000 	   25.9831 
    5.1804 	   42.9890 	   23.0000 	   46.0000 	   26.0241 
    5.3635 	   43.0090 	   23.0000 	   46.0000 	   26.0641 
    5.2262 	   43.0280 	   23.0000 	   46.0000 	   26.1021 
    5.2110 	   43.0675 	   23.0000 	   46.0000 	   26.1811 
    5.3025 	   43.0885 	   23.0000 	   46.0000 	   26.2231 
    5.3330 	   43.1085 	   23.0000 	   46.0000 	   26.2631 
    5.1652 	   43.1280 	   23.0000 	   46.0000 	   26.3021 
    4.9210 	   43.1455 	   23.0000 	   46.0000 	   26.3371 
    5.1804 	   43.1650 	   23.0000 	   46.0000 	   26.3761 
    4.9668 	   43.1835 	   23.0000 	   46.0000 	   26.4131 
    5.3025 	   43.2020 	   23.0000 	   46.0000 	   26.4501 
    5.2720 	   43.2205 	   23.0000 	   46.0000 	   26.4872 
    5.2262 	   43.2385 	   23.0000 	   46.0000 	   26.5232 
    5.2720 	   43.2580 	   23.0000 	   46.0000 	   26.5622 
    5.4093 	   43.2790 	   23.0000 	   46.0000 	   26.6042 
    5.1499 	   43.3000 	   23.0000 	   46.0000 	   26.6462 
    5.2415 	   43.3225 	   23.0000 	   46.0000 	   26.6912 
    5.2415 	   43.3425 	   23.0000 	   46.0000 	   26.7312 
    5.2262 	   43.3635 	   23.0000 	   46.0000 	   26.7732 
    5.2415 	   43.3830 	   23.0000 	   46.0000 	   26.8122 
    5.2415 	   43.4045 	   23.0000 	   46.0000 	   26.8552 
    5.1652 	   43.4260 	   23.0000 	   46.0000 	   26.8982 
    5.2110 	   43.4455 	   23.0000 	   46.0000 	   26.9372 
    5.2567 	   43.4665 	   23.0000 	   46.0000 	   26.9792 
    5.2110 	   43.4870 	   23.0000 	   46.0000 	   27.0202 
    5.4551 	   43.5065 	   23.0000 	   46.0000 	   27.0592 
    5.2567 	   43.5265 	   23.0000 	   46.0000 	   27.0992 
    5.2415 	   43.5465 	   23.0000 	   46.0000 	   27.1392 
    5.1652 	   43.5670 	   23.0000 	   46.0000 	   27.1802 
    5.3025 	   43.5875 	   23.0000 	   46.0000 	   27.2212 
    5.3788 	   43.6080 	   23.0000 	   46.0000 	   27.2622 
    5.2567 	   43.6275 	   23.0000 	   46.0000 	   27.3012 
    5.3025 	   43.6485 	   23.0000 	   46.0000 	   27.3432 
    5.1957 	   43.6685 	   23.0000 	   46.0000 	   27.3832 
    5.2415 	   43.6890 	   23.0000 	   46.0000 	   27.4242 
    5.3330 	   43.7090 	   23.0000 	   46.0000 	   27.4642 
    5.2262 	   43.7290 	   23.0000 	   46.0000 	   27.5042 
    5.2873 	   43.7485 	   23.0000 	   46.0000 	   27.5432 
    5.3483 	   43.7695 	   23.0000 	   46.0000 	   27.5852 
    5.4246 	   43.7905 	   23.0000 	   46.0000 	   27.6272 
    5.4856 	   43.8110 	   23.0000 	   46.0000 	   27.6682 
    5.2110 	   43.8315 	   23.0000 	   46.0000 	   27.7092 
    5.2262 	   43.8515 	   23.0000 	   46.0000 	   27.7492 
    5.2567 	   43.8725 	   23.0000 	   46.0000 	   27.7902 
    5.1804 	   43.8920 	   23.0000 	   46.0000 	   27.8302 
    5.2720 	   43.9135 	   23.0000 	   46.0000 	   27.8732 
    5.3025 	   43.9345 	   23.0000 	   46.0000 	   27.9152 
    5.2720 	   43.9550 	   23.0000 	   46.0000 	   27.9562 
    5.1957 	   43.9755 	   23.0000 	   46.0000 	   27.9972 
    5.2415 	   43.9970 	   23.0000 	   46.0000 	   28.0402 
    5.2873 	   44.0175 	   23.0000 	   46.0000 	   28.0812 
    5.2262 	   44.0385 	   23.0000 	   46.0000 	   28.1232 
    5.2873 	   44.0610 	   23.0000 	   46.0000 	   28.1682 
    5.3941 	   44.0805 	   23.0000 	   46.0000 	   28.2072 
    5.1804 	   44.1015 	   23.0000 	   46.0000 	   28.2493 
    5.2720 	   44.1220 	   23.0000 	   46.0000 	   28.2903 
    5.4398 	   44.1430 	   23.0000 	   46.0000 	   28.3313 
    5.4856 	   44.1635 	   23.0000 	   46.0000 	   28.3733 
    5.4551 	   44.1850 	   23.0000 	   46.0000 	   28.4163 
    5.3941 	   44.2060 	   23.0000 	   46.0000 	   28.4583 
    5.0889 	   44.2255 	   23.0000 	   46.0000 	   28.4973 
    5.3635 	   44.2460 	   23.0000 	   46.0000 	   28.5383 
    5.3178 	   44.2660 	   23.0000 	   46.0000 	   28.5783 
    5.3941 	   44.2870 	   23.0000 	   46.0000 	   28.6203 
    5.3483 	   44.3080 	   23.0000 	   46.0000 	   28.6623 
    5.3788 	   44.3285 	   23.0000 	   46.0000 	   28.7033 
    5.4551 	   44.3490 	   23.0000 	   46.0000 	   28.7443 
    5.5619 	   44.3695 	   23.0000 	   46.0000 	   28.7853 
    5.4704 	   44.3890 	   23.0000 	   46.0000 	   28.8243 
    5.4551 	   44.4110 	   23.0000 	   46.0000 	   28.8683 
    5.2873 	   44.4315 	   23.0000 	   46.0000 	   28.9093 
    5.3178 	   44.4520 	   23.0000 	   46.0000 	   28.9503 
    5.3483 	   44.4730 	   23.0000 	   46.0000 	   28.9923 
    5.3178 	   44.4925 	   23.0000 	   46.0000 	   29.0313 
    5.3483 	   44.5120 	   23.0000 	   46.0000 	   29.0703 
    5.3330 	   44.5315 	   23.0000 	   46.0000 	   29.1093 
    5.4551 	   44.5515 	   23.0000 	   46.0000 	   29.1493 
    5.3788 	   44.5720 	   23.0000 	   46.0000 	   29.1903 
    5.5161 	   44.5920 	   23.0000 	   46.0000 	   29.2303 
    5.5924 	   44.6135 	   23.0000 	   46.0000 	   29.2733 
    5.4246 	   44.6335 	   23.0000 	   46.0000 	   29.3133 
    5.4551 	   44.6530 	   23.0000 	   46.0000 	   29.3523 
    5.5009 	   44.6740 	   23.0000 	   46.0000 	   29.3943 
    5.4093 	   44.6945 	   23.0000 	   46.0000 	   29.4343 
    5.4093 	   44.7145 	   23.0000 	   46.0000 	   29.4753 
    5.4704 	   44.7350 	   23.0000 	   46.0000 	   29.5163 
    5.6687 	   44.7545 	   23.0000 	   46.0000 	   29.5553 
    5.3941 	   44.7730 	   23.0000 	   46.0000 	   29.5923 
    5.1804 	   44.7955 	   23.0000 	   46.0000 	   29.6373 
    5.5772 	   44.8155 	   23.0000 	   46.0000 	   29.6773 
    5.3788 	   44.8335 	   23.0000 	   46.0000 	   29.7133 
    5.4398 	   44.8525 	   23.0000 	   46.0000 	   29.7513 
    5.6382 	   44.8725 	   23.0000 	   46.0000 	   29.7913 
    5.3330 	   44.8930 	   23.0000 	   46.0000 	   29.8323 
    5.5161 	   44.9140 	   23.0000 	   46.0000 	   29.8743 
    5.5009 	   44.9345 	   23.0000 	   46.0000 	   29.9153 
    5.3483 	   44.9545 	   23.0000 	   46.0000 	   29.9553 
    5.5467 	   44.9745 	   23.0000 	   46.0000 	   29.9954 
    5.5009 	   44.9955 	   23.0000 	   46.0000 	   30.0374 
    5.5314 	   45.0175 	   23.0000 	   46.0000 	   30.0804 
    5.4704 	   45.0380 	   23.0000 	   46.0000 	   30.1224 
    5.5161 	   45.0605 	   23.0000 	   46.0000 	   30.1674 
    5.5009 	   45.0810 	   23.0000 	   46.0000 	   30.2084 
    5.3178 	   45.1020 	   23.0000 	   46.0000 	   30.2504 
    5.5161 	   45.1230 	   23.0000 	   46.0000 	   30.2924 
    5.4551 	   45.1445 	   23.0000 	   46.0000 	   30.3354 
    5.3635 	   45.1650 	   23.0000 	   46.0000 	   30.3764 
    5.5314 	   45.1850 	   23.0000 	   46.0000 	   30.4164 
    5.5009 	   45.2055 	   23.0000 	   46.0000 	   30.4574 
    5.4551 	   45.2265 	   23.0000 	   46.0000 	   30.4994 
    5.6077 	   45.2470 	   23.0000 	   46.0000 	   30.5404 
    5.3788 	   45.2670 	   23.0000 	   46.0000 	   30.5804 
    5.3788 	   45.2875 	   23.0000 	   46.0000 	   30.6214 
    5.4704 	   45.3075 	   23.0000 	   46.0000 	   30.6614 
    5.4856 	   45.3275 	   23.0000 	   46.0000 	   30.7014 
    5.4856 	   45.3485 	   23.0000 	   46.0000 	   30.7434 
    5.5467 	   45.3685 	   23.0000 	   46.0000 	   30.7834 
    5.6687 	   45.3890 	   23.0000 	   46.0000 	   30.8244 
    5.4246 	   45.4090 	   23.0000 	   46.0000 	   30.8634 
    5.5619 	   45.4295 	   23.0000 	   46.0000 	   30.9054 
    5.4246 	   45.4500 	   23.0000 	   46.0000 	   30.9464 
    5.2720 	   45.4700 	   23.0000 	   46.0000 	   30.9864 
    5.6687 	   45.4900 	   23.0000 	   46.0000 	   31.0264 
    5.5772 	   45.5100 	   23.0000 	   46.0000 	   31.0664 
    5.4551 	   45.5315 	   23.0000 	   46.0000 	   31.1094 
    5.5467 	   45.5520 	   23.0000 	   46.0000 	   31.1504 
    5.4704 	   45.5715 	   23.0000 	   46.0000 	   31.1894 
    5.5161 	   45.5910 	   23.0000 	   46.0000 	   31.2284 
    5.5772 	   45.6110 	   23.0000 	   46.0000 	   31.2684 
    5.2873 	   45.6320 	   23.0000 	   46.0000 	   31.3104 
    5.6229 	   45.6525 	   23.0000 	   46.0000 	   31.3514 
    5.6229 	   45.6725 	   23.0000 	   46.0000 	   31.3914 
    5.5009 	   45.6925 	   23.0000 	   46.0000 	   31.4314 
    5.5467 	   45.7125 	   23.0000 	   46.0000 	   31.4714 
    5.5161 	   45.7325 	   23.0000 	   46.0000 	   31.5114 
    5.5161 	   45.7535 	   23.0000 	   46.0000 	   31.5534 
    5.7603 	   45.7740 	   23.0000 	   46.0000 	   31.5944 
    5.5772 	   45.7930 	   23.0000 	   46.0000 	   31.6324 
    5.5619 	   45.8155 	   23.0000 	   46.0000 	   31.6774 
    5.5467 	   45.8350 	   23.0000 	   46.0000 	   31.7164 
    5.6840 	   45.8555 	   23.0000 	   46.0000 	   31.7575 
    5.6992 	   45.8760 	   23.0000 	   46.0000 	   31.7985 
    5.5161 	   45.8970 	   23.0000 	   46.0000 	   31.8405 
    5.7603 	   45.9165 	   23.0000 	   46.0000 	   31.8795 
    5.3635 	   45.9370 	   23.0000 	   46.0000 	   31.9205 
    5.6687 	   45.9565 	   23.0000 	   46.0000 	   31.9595 
    5.6687 	   45.9765 	   23.0000 	   46.0000 	   31.9995 
    5.7298 	   45.9970 	   23.0000 	   46.0000 	   32.0405 
    5.5619 	   46.0175 	   23.0000 	   46.0000 	   32.0815 
    5.5924 	   46.0385 	   23.0000 	   46.0000 	   32.1225 
    5.6229 	   46.0605 	   23.0000 	   46.0000 	   32.1675 
    5.5924 	   46.0810 	   23.0000 	   46.0000 	   32.2085 
    5.6687 	   46.1020 	   23.0000 	   46.0000 	   32.2505 
    5.5924 	   46.1220 	   23.0000 	   46.0000 	   32.2905 
    5.5467 	   46.1425 	   23.0000 	   46.0000 	   32.3315 
    5.6382 	   46.1630 	   23.0000 	   46.0000 	   32.3725 
    5.4551 	   46.1830 	   23.0000 	   46.0000 	   32.4125 
    5.7145 	   46.2030 	   23.0000 	   46.0000 	   32.4525 
    5.6382 	   46.2235 	   23.0000 	   46.0000 	   32.4935 
    5.6077 	   46.2430 	   23.0000 	   46.0000 	   32.5325 
    5.5924 	   46.2630 	   23.0000 	   46.0000 	   32.5725 
    5.5314 	   46.2825 	   23.0000 	   46.0000 	   32.6115 
    5.6535 	   46.3020 	   23.0000 	   46.0000 	   32.6505 
    5.7603 	   46.3210 	   23.0000 	   46.0000 	   32.6885 
    5.8366 	   46.3395 	   23.0000 	   46.0000 	   32.7255 
    5.6687 	   46.3580 	   23.0000 	   46.0000 	   32.7625 
    5.7298 	   46.3780 	   23.0000 	   46.0000 	   32.8025 
    5.7603 	   46.3970 	   23.0000 	   46.0000 	   32.8405 
    5.6840 	   46.4155 	   23.0000 	   46.0000 	   32.8775 
    5.3788 	   46.4340 	   23.0000 	   46.0000 	   32.9145 
    5.7298 	   46.4525 	   23.0000 	   46.0000 	   32.9515 
    5.6535 	   46.4715 	   23.0000 	   46.0000 	   32.9895 
    5.5161 	   46.4895 	   23.0000 	   46.0000 	   33.0255 
    5.6535 	   46.5085 	   23.0000 	   46.0000 	   33.0635 
    5.5619 	   46.5270 	   23.0000 	   46.0000 	   33.1005 
    5.7603 	   46.5450 	   23.0000 	   46.0000 	   33.1365 
    5.8366 	   46.5640 	   23.0000 	   46.0000 	   33.1745 
    5.6687 	   46.5825 	   23.0000 	   46.0000 	   33.2115 
    5.9281 	   46.6020 	   23.0000 	   46.0000 	   33.2505 
    5.7755 	   46.6230 	   23.0000 	   46.0000 	   33.2925 
    5.7908 	   46.6430 	   23.0000 	   46.0000 	   33.3325 
    5.5009 	   46.6630 	   23.0000 	   46.0000 	   33.3725 
    5.7145 	   46.6830 	   23.0000 	   46.0000 	   33.4125 
    5.7603 	   46.7030 	   23.0000 	   46.0000 	   33.4525 
    5.7603 	   46.7235 	   23.0000 	   46.0000 	   33.4936 
    5.6840 	   46.7440 	   23.0000 	   46.0000 	   33.5346 
    5.7450 	   46.7655 	   23.0000 	   46.0000 	   33.5776 
    5.8366 	   46.7860 	   23.0000 	   46.0000 	   33.6186 
    5.7908 	   46.8065 	   23.0000 	   46.0000 	   33.6596 
    5.7603 	   46.8275 	   23.0000 	   46.0000 	   33.7016 
    5.6382 	   46.8475 	   23.0000 	   46.0000 	   33.7416 
    5.7908 	   46.8690 	   23.0000 	   46.0000 	   33.7846 
    5.7908 	   46.8905 	   23.0000 	   46.0000 	   33.8276 
    5.7908 	   46.9115 	   23.0000 	   46.0000 	   33.8696 
    5.8976 	   46.9310 	   23.0000 	   46.0000 	   33.9086 
    5.7755 	   46.9510 	   23.0000 	   46.0000 	   33.9486 
    5.8824 	   46.9715 	   23.0000 	   46.0000 	   33.9896 
    5.9586 	   46.9925 	   23.0000 	   46.0000 	   34.0316 
    5.7755 	   47.0130 	   23.0000 	   46.0000 	   34.0726 
    5.9739 	   47.0330 	   23.0000 	   46.0000 	   34.1126 
    5.8061 	   47.0555 	   23.0000 	   46.0000 	   34.1576 
    5.8824 	   47.0750 	   23.0000 	   46.0000 	   34.1966 
    5.7298 	   47.0955 	   23.0000 	   46.0000 	   34.2376 
    5.7755 	   47.1160 	   23.0000 	   46.0000 	   34.2786 
    5.8061 	   47.1360 	   23.0000 	   46.0000 	   34.3186 
    5.7450 	   47.1570 	   23.0000 	   46.0000 	   34.3606 
    5.8366 	   47.1780 	   23.0000 	   46.0000 	   34.4026 
    5.8824 	   47.1990 	   23.0000 	   46.0000 	   34.4446 
    5.7908 	   47.2195 	   23.0000 	   46.0000 	   34.4856 
    5.8824 	   47.2415 	   23.0000 	   46.0000 	   34.5296 
    5.8213 	   47.2610 	   23.0000 	   46.0000 	   34.5686 
    5.8061 	   47.2815 	   23.0000 	   46.0000 	   34.6096 
    5.8671 	   47.3025 	   23.0000 	   46.0000 	   34.6516 
    5.9281 	   47.3235 	   23.0000 	   46.0000 	   34.6936 
    5.8824 	   47.3445 	   23.0000 	   46.0000 	   34.7356 
    5.8671 	   47.3655 	   23.0000 	   46.0000 	   34.7776 
    5.6535 	   47.3860 	   23.0000 	   46.0000 	   34.8186 
    5.8824 	   47.4070 	   23.0000 	   46.0000 	   34.8606 
    5.9129 	   47.4280 	   23.0000 	   46.0000 	   34.9026 
    5.7603 	   47.4485 	   23.0000 	   46.0000 	   34.9436 
    5.9129 	   47.4680 	   23.0000 	   46.0000 	   34.9826 
    5.9129 	   47.4895 	   23.0000 	   46.0000 	   35.0256 
    5.7908 	   47.5100 	   23.0000 	   46.0000 	   35.0666 
    5.9281 	   47.5295 	   23.0000 	   46.0000 	   35.1056 
    5.8671 	   47.5500 	   23.0000 	   46.0000 	   35.1466 
    5.8518 	   47.5705 	   23.0000 	   46.0000 	   35.1876 
    5.9586 	   47.5905 	   23.0000 	   46.0000 	   35.2276 
    6.0044 	   47.6125 	   23.0000 	   46.0000 	   35.2717 
    6.0349 	   47.6325 	   23.0000 	   46.0000 	   35.3117 
    5.8824 	   47.6555 	   23.0000 	   46.0000 	   35.3577 
    5.8671 	   47.6760 	   23.0000 	   46.0000 	   35.3987 
    5.9281 	   47.6960 	   23.0000 	   46.0000 	   35.4387 
    5.8976 	   47.7170 	   23.0000 	   46.0000 	   35.4807 
    5.7450 	   47.7385 	   23.0000 	   46.0000 	   35.5237 
    5.5772 	   47.7585 	   23.0000 	   46.0000 	   35.5637 
    5.9281 	   47.7790 	   23.0000 	   46.0000 	   35.6047 
    5.9129 	   47.8060 	   23.0000 	   46.0000 	   35.6587 
    5.9586 	   47.8285 	   23.0000 	   46.0000 	   35.7037 
    6.0349 	   47.8500 	   23.0000 	   46.0000 	   35.7467 
    5.9892 	   47.8705 	   23.0000 	   46.0000 	   35.7877 
    5.9892 	   47.8905 	   23.0000 	   46.0000 	   35.8277 
    6.0197 	   47.9120 	   23.0000 	   46.0000 	   35.8707 
    5.8824 	   47.9325 	   23.0000 	   46.0000 	   35.9117 
    5.8366 	   47.9550 	   23.0000 	   46.0000 	   35.9567 
    6.0197 	   47.9765 	   23.0000 	   46.0000 	   35.9997 
    5.9586 	   47.9970 	   23.0000 	   46.0000 	   36.0407 
    5.8671 	   48.0180 	   23.0000 	   46.0000 	   36.0827 
    6.0197 	   48.0380 	   23.0000 	   46.0000 	   36.1227 
    5.6840 	   48.0590 	   23.0000 	   46.0000 	   36.1647 
    6.1418 	   48.0800 	   23.0000 	   46.0000 	   36.2067 
    5.8518 	   48.1005 	   23.0000 	   46.0000 	   36.2477 
    6.0349 	   48.1215 	   23.0000 	   46.0000 	   36.2897 
    5.8213 	   48.1420 	   23.0000 	   46.0000 	   36.3307 
    5.9434 	   48.1625 	   23.0000 	   46.0000 	   36.3717 
    6.0197 	   48.1840 	   23.0000 	   46.0000 	   36.4147 
    5.9281 	   48.2035 	   23.0000 	   46.0000 	   36.4537 
    6.0502 	   48.2220 	   23.0000 	   46.0000 	   36.4907 
    5.9892 	   48.2410 	   23.0000 	   46.0000 	   36.5287 
    6.2181 	   48.2600 	   23.0000 	   46.0000 	   36.5667 
    6.1112 	   48.2800 	   23.0000 	   46.0000 	   36.6067 
    5.9586 	   48.3015 	   23.0000 	   46.0000 	   36.6497 
    5.9892 	   48.3220 	   23.0000 	   46.0000 	   36.6907 
    6.0044 	   48.3415 	   23.0000 	   46.0000 	   36.7297 
    6.0197 	   48.3615 	   23.0000 	   46.0000 	   36.7697 
    5.9739 	   48.3825 	   23.0000 	   46.0000 	   36.8117 
    5.9434 	   48.4030 	   23.0000 	   46.0000 	   36.8527 
    6.1265 	   48.4240 	   23.0000 	   46.0000 	   36.8947 
    6.2333 	   48.4445 	   23.0000 	   46.0000 	   36.9357 
    5.9739 	   48.4655 	   23.0000 	   46.0000 	   36.9778 
    5.9739 	   48.4860 	   23.0000 	   46.0000 	   37.0188 
    5.9739 	   48.5070 	   23.0000 	   46.0000 	   37.0608 
    6.1418 	   48.5280 	   23.0000 	   46.0000 	   37.1028 
    6.0349 	   48.5490 	   23.0000 	   46.0000 	   37.1448 
    6.0197 	   48.5705 	   23.0000 	   46.0000 	   37.1878 
    5.9129 	   48.5925 	   23.0000 	   46.0000 	   37.2318 
    6.1112 	   48.6135 	   23.0000 	   46.0000 	   37.2738 
    6.1265 	   48.6335 	   23.0000 	   46.0000 	   37.3138 
    6.2333 	   48.6540 	   23.0000 	   46.0000 	   37.3548 
    6.1265 	   48.6755 	   23.0000 	   46.0000 	   37.3978 
    6.0197 	   48.6965 	   23.0000 	   46.0000 	   37.4398 
    6.0655 	   48.7170 	   23.0000 	   46.0000 	   37.4808 
    6.1112 	   48.7360 	   23.0000 	   46.0000 	   37.5188 
    6.1418 	   48.7555 	   23.0000 	   46.0000 	   37.5578 
    6.1418 	   48.7760 	   23.0000 	   46.0000 	   37.5988 
    6.3859 	   48.7955 	   23.0000 	   46.0000 	   37.6378 
    6.0655 	   48.8180 	   23.0000 	   46.0000 	   37.6828 
    6.2333 	   48.8395 	   23.0000 	   46.0000 	   37.7258 
    6.0197 	   48.8590 	   23.0000 	   46.0000 	   37.7648 
    6.0807 	   48.8805 	   23.0000 	   46.0000 	   37.8078 
    6.1265 	   48.9010 	   23.0000 	   46.0000 	   37.8488 
    6.1570 	   48.9215 	   23.0000 	   46.0000 	   37.8898 
    6.0349 	   48.9420 	   23.0000 	   46.0000 	   37.9308 
    6.0197 	   48.9635 	   23.0000 	   46.0000 	   37.9738 
    6.1112 	   48.9850 	   23.0000 	   46.0000 	   38.0168 
    6.1265 	   49.0055 	   23.0000 	   46.0000 	   38.0578 
    6.1875 	   49.0255 	   23.0000 	   46.0000 	   38.0978 
    6.0960 	   49.0475 	   23.0000 	   46.0000 	   38.1418 
    6.2333 	   49.0680 	   23.0000 	   46.0000 	   38.1828 
    6.2028 	   49.0885 	   23.0000 	   46.0000 	   38.2238 
    6.0960 	   49.1095 	   23.0000 	   46.0000 	   38.2658 
    6.2638 	   49.1305 	   23.0000 	   46.0000 	   38.3078 
    6.2028 	   49.1520 	   23.0000 	   46.0000 	   38.3508 
    6.1875 	   49.1730 	   23.0000 	   46.0000 	   38.3928 
    6.1418 	   49.1935 	   23.0000 	   46.0000 	   38.4338 
    6.3096 	   49.2140 	   23.0000 	   46.0000 	   38.4748 
    6.2028 	   49.2335 	   23.0000 	   46.0000 	   38.5138 
    6.2028 	   49.2520 	   23.0000 	   46.0000 	   38.5508 
    6.2333 	   49.2710 	   23.0000 	   46.0000 	   38.5888 
    6.1570 	   49.2900 	   23.0000 	   46.0000 	   38.6268 
    5.9739 	   49.3085 	   23.0000 	   46.0000 	   38.6638 
    6.1723 	   49.3275 	   23.0000 	   46.0000 	   38.7019 
    6.1570 	   49.3470 	   23.0000 	   46.0000 	   38.7409 
    6.1418 	   49.3680 	   23.0000 	   46.0000 	   38.7829 
    6.2791 	   49.3900 	   23.0000 	   46.0000 	   38.8269 
    6.2181 	   49.4110 	   23.0000 	   46.0000 	   38.8689 
    6.2638 	   49.4315 	   23.0000 	   46.0000 	   38.9099 
    6.2181 	   49.4515 	   23.0000 	   46.0000 	   38.9499 
    6.1265 	   49.4725 	   23.0000 	   46.0000 	   38.9919 
    6.1723 	   49.4925 	   23.0000 	   46.0000 	   39.0319 
    6.2333 	   49.5130 	   23.0000 	   46.0000 	   39.0729 
    6.0655 	   49.5340 	   23.0000 	   46.0000 	   39.1149 
    6.2943 	   49.5550 	   23.0000 	   46.0000 	   39.1569 
    6.2638 	   49.5750 	   23.0000 	   46.0000 	   39.1969 
    6.2486 	   49.5960 	   23.0000 	   46.0000 	   39.2389 
    6.4317 	   49.6170 	   23.0000 	   46.0000 	   39.2809 
    6.2486 	   49.6375 	   23.0000 	   46.0000 	   39.3219 
    6.2028 	   49.6595 	   23.0000 	   46.0000 	   39.3659 
    6.3554 	   49.6805 	   23.0000 	   46.0000 	   39.4079 
    6.2943 	   49.7020 	   23.0000 	   46.0000 	   39.4509 
    6.4317 	   49.7220 	   23.0000 	   46.0000 	   39.4909 
    6.2638 	   49.7430 	   23.0000 	   46.0000 	   39.5329 
    6.2333 	   49.7630 	   23.0000 	   46.0000 	   39.5729 
    6.3096 	   49.7840 	   23.0000 	   46.0000 	   39.6149 
    6.2791 	   49.8060 	   23.0000 	   46.0000 	   39.6589 
    6.3249 	   49.8285 	   23.0000 	   46.0000 	   39.7039 
    6.1723 	   49.8485 	   23.0000 	   46.0000 	   39.7439 
    6.3554 	   49.8690 	   23.0000 	   46.0000 	   39.7849 
    6.2791 	   49.8895 	   23.0000 	   46.0000 	   39.8259 
    6.1875 	   49.9100 	   23.0000 	   46.0000 	   39.8669 
    5.9434 	   49.9310 	   23.0000 	   46.0000 	   39.9089 
    5.9129 	   49.9520 	   23.0000 	   46.0000 	   39.9509 
    6.2486 	   49.9725 	   23.0000 	   46.0000 	   39.9919 
    6.1570 	   49.9935 	   23.0000 	   46.0000 	   40.0339 
    6.3096 	   50.0145 	   23.0000 	   46.0000 	   40.0759 
    6.3706 	   50.0355 	   23.0000 	   46.0000 	   40.1179 
    6.2791 	   50.0585 	   23.0000 	   46.0000 	   40.1639 
    6.3249 	   50.0770 	   23.0000 	   46.0000 	   40.2009 
    6.3249 	   50.0970 	   23.0000 	   46.0000 	   40.2409 
    6.4622 	   50.1170 	   23.0000 	   46.0000 	   40.2809 
    6.4775 	   50.1380 	   23.0000 	   46.0000 	   40.3229 
    6.3096 	   50.1590 	   23.0000 	   46.0000 	   40.3649 
    6.4622 	   50.1795 	   23.0000 	   46.0000 	   40.4059 
    6.0655 	   50.2005 	   23.0000 	   46.0000 	   40.4479 
    6.2638 	   50.2215 	   23.0000 	   46.0000 	   40.4900 
    6.3554 	   50.2430 	   23.0000 	   46.0000 	   40.5320 
    6.4775 	   50.2630 	   23.0000 	   46.0000 	   40.5730 
    6.4164 	   50.2845 	   23.0000 	   46.0000 	   40.6160 
    6.2791 	   50.3055 	   23.0000 	   46.0000 	   40.6580 
    6.3096 	   50.3275 	   23.0000 	   46.0000 	   40.7020 
    6.4775 	   50.3485 	   23.0000 	   46.0000 	   40.7440 
    6.4012 	   50.3700 	   23.0000 	   46.0000 	   40.7870 
    6.3706 	   50.3910 	   23.0000 	   46.0000 	   40.8290 
    6.4317 	   50.4125 	   23.0000 	   46.0000 	   40.8720 
    6.3859 	   50.4330 	   23.0000 	   46.0000 	   40.9130 
    6.3554 	   50.4535 	   23.0000 	   46.0000 	   40.9540 
    6.3554 	   50.4740 	   23.0000 	   46.0000 	   40.9950 
    6.4469 	   50.4945 	   23.0000 	   46.0000 	   41.0360 
    6.2791 	   50.5155 	   23.0000 	   46.0000 	   41.0780 
    6.4164 	   50.5345 	   23.0000 	   46.0000 	   41.1160 
    6.3859 	   50.5540 	   23.0000 	   46.0000 	   41.1550 
    6.4622 	   50.5735 	   23.0000 	   46.0000 	   41.1940 
    6.4927 	   50.5935 	   23.0000 	   46.0000 	   41.2340 
    6.4775 	   50.6140 	   23.0000 	   46.0000 	   41.2750 
    6.4164 	   50.6340 	   23.0000 	   46.0000 	   41.3150 
    6.4927 	   50.6550 	   23.0000 	   46.0000 	   41.3570 
    6.3401 	   50.6760 	   23.0000 	   46.0000 	   41.3990 
    6.5843 	   50.6965 	   23.0000 	   46.0000 	   41.4400 
    6.5537 	   50.7175 	   23.0000 	   46.0000 	   41.4820 
    6.4317 	   50.7380 	   23.0000 	   46.0000 	   41.5230 
    6.4927 	   50.7595 	   23.0000 	   46.0000 	   41.5660 
    6.5995 	   50.7795 	   23.0000 	   46.0000 	   41.6060 
    6.4775 	   50.8055 	   23.0000 	   46.0000 	   41.6580 
    6.4775 	   50.8260 	   23.0000 	   46.0000 	   41.6990 
    6.5385 	   50.8480 	   23.0000 	   46.0000 	   41.7430 
    6.6453 	   50.8695 	   23.0000 	   46.0000 	   41.7860 
    6.4469 	   50.8905 	   23.0000 	   46.0000 	   41.8280 
    6.3401 	   50.9135 	   23.0000 	   46.0000 	   41.8740 
    6.6300 	   50.9355 	   23.0000 	   46.0000 	   41.9180 
    6.4775 	   50.9560 	   23.0000 	   46.0000 	   41.9590 
    6.4622 	   50.9775 	   23.0000 	   46.0000 	   42.0020 
    6.5537 	   50.9985 	   23.0000 	   46.0000 	   42.0440 
    6.6300 	   51.0195 	   23.0000 	   46.0000 	   42.0860 
    6.5232 	   51.0405 	   23.0000 	   46.0000 	   42.1280 
    6.5232 	   51.0625 	   23.0000 	   46.0000 	   42.1720 
    6.6453 	   51.0815 	   23.0000 	   46.0000 	   42.2100 
    6.4775 	   51.1000 	   23.0000 	   46.0000 	   42.2471 
    6.4927 	   51.1185 	   23.0000 	   46.0000 	   42.2841 
    6.5843 	   51.1370 	   23.0000 	   46.0000 	   42.3211 
    6.5232 	   51.1575 	   23.0000 	   46.0000 	   42.3621 
    6.5690 	   51.1770 	   23.0000 	   46.0000 	   42.4011 
    6.4164 	   51.1955 	   23.0000 	   46.0000 	   42.4381 
    6.4622 	   51.2160 	   23.0000 	   46.0000 	   42.4791 
    6.4775 	   51.2365 	   23.0000 	   46.0000 	   42.5201 
    6.7674 	   51.2570 	   23.0000 	   46.0000 	   42.5611 
    6.6606 	   51.2780 	   23.0000 	   46.0000 	   42.6031 
    6.5995 	   51.2985 	   23.0000 	   46.0000 	   42.6441 
    6.6300 	   51.3200 	   23.0000 	   46.0000 	   42.6871 
    6.5690 	   51.3395 	   23.0000 	   46.0000 	   42.7261 
    6.4927 	   51.3600 	   23.0000 	   46.0000 	   42.7671 
    6.6911 	   51.3805 	   23.0000 	   46.0000 	   42.8081 
    6.5385 	   51.4015 	   23.0000 	   46.0000 	   42.8501 
    6.5080 	   51.4215 	   23.0000 	   46.0000 	   42.8901 
    6.6300 	   51.4420 	   23.0000 	   46.0000 	   42.9311 
    6.6148 	   51.4645 	   23.0000 	   46.0000 	   42.9751 
    6.6453 	   51.4850 	   23.0000 	   46.0000 	   43.0161 
    6.6911 	   51.5055 	   23.0000 	   46.0000 	   43.0571 
    6.5080 	   51.5275 	   23.0000 	   46.0000 	   43.1011 
    6.5995 	   51.5480 	   23.0000 	   46.0000 	   43.1421 
    6.6300 	   51.5690 	   23.0000 	   46.0000 	   43.1841 
    6.6148 	   51.5905 	   23.0000 	   46.0000 	   43.2271 
    6.7369 	   51.6110 	   23.0000 	   46.0000 	   43.2681 
    6.6911 	   51.6315 	   23.0000 	   46.0000 	   43.3091 
    6.5690 	   51.6530 	   23.0000 	   46.0000 	   43.3521 
    6.7216 	   51.6745 	   23.0000 	   46.0000 	   43.3951 
    6.5385 	   51.6950 	   23.0000 	   46.0000 	   43.4361 
    6.6453 	   51.7160 	   23.0000 	   46.0000 	   43.4781 
    6.5690 	   51.7375 	   23.0000 	   46.0000 	   43.5211 
    6.6453 	   51.7600 	   23.0000 	   46.0000 	   43.5661 
    6.5690 	   51.7805 	   23.0000 	   46.0000 	   43.6071 
    6.7063 	   51.8060 	   23.0000 	   46.0000 	   43.6581 
    6.7826 	   51.8280 	   23.0000 	   46.0000 	   43.7021 
    6.6911 	   51.8495 	   23.0000 	   46.0000 	   43.7451 
    6.6453 	   51.8710 	   23.0000 	   46.0000 	   43.7881 
    6.7826 	   51.8910 	   23.0000 	   46.0000 	   43.8281 
    6.7216 	   51.9125 	   23.0000 	   46.0000 	   43.8711 
    6.8742 	   51.9325 	   23.0000 	   46.0000 	   43.9111 
    6.7369 	   51.9535 	   23.0000 	   46.0000 	   43.9531 
    6.6758 	   51.9765 	   23.0000 	   46.0000 	   43.9992 
    6.8132 	   51.9975 	   23.0000 	   46.0000 	   44.0412 
    6.6148 	   52.0185 	   23.0000 	   46.0000 	   44.0832 
    6.7674 	   52.0395 	   23.0000 	   46.0000 	   44.1252 
    6.6911 	   52.0630 	   23.0000 	   46.0000 	   44.1722 
    6.6758 	   52.0845 	   23.0000 	   46.0000 	   44.2152 
    6.6606 	   52.1050 	   23.0000 	   46.0000 	   44.2562 
    6.6911 	   52.1260 	   23.0000 	   46.0000 	   44.2982 
    6.6453 	   52.1460 	   23.0000 	   46.0000 	   44.3382 
    6.7063 	   52.1670 	   23.0000 	   46.0000 	   44.3802 
    6.7979 	   52.1880 	   23.0000 	   46.0000 	   44.4222 
    6.6758 	   52.2085 	   23.0000 	   46.0000 	   44.4632 
    6.7521 	   52.2290 	   23.0000 	   46.0000 	   44.5042 
    6.5080 	   52.2490 	   23.0000 	   46.0000 	   44.5442 
    6.7063 	   52.2715 	   23.0000 	   46.0000 	   44.5892 
    6.8742 	   52.2930 	   23.0000 	   46.0000 	   44.6322 
    6.7521 	   52.3135 	   23.0000 	   46.0000 	   44.6732 
    6.7979 	   52.3345 	   23.0000 	   46.0000 	   44.7152 
    6.5385 	   52.3560 	   23.0000 	   46.0000 	   44.7582 
    6.9352 	   52.3765 	   23.0000 	   46.0000 	   44.7992 
    6.7674 	   52.3970 	   23.0000 	   46.0000 	   44.8402 
    6.9505 	   52.4175 	   23.0000 	   46.0000 	   44.8812 
    6.6606 	   52.4390 	   23.0000 	   46.0000 	   44.9242 
    6.7063 	   52.4605 	   23.0000 	   46.0000 	   44.9672 
    6.7216 	   52.4810 	   23.0000 	   46.0000 	   45.0082 
    6.8437 	   52.5020 	   23.0000 	   46.0000 	   45.0502 
    6.9047 	   52.5235 	   23.0000 	   46.0000 	   45.0932 
    6.9963 	   52.5440 	   23.0000 	   46.0000 	   45.1342 
    6.7369 	   52.5655 	   23.0000 	   46.0000 	   45.1772 
    6.9200 	   52.5860 	   23.0000 	   46.0000 	   45.2182 
    6.9047 	   52.6060 	   23.0000 	   46.0000 	   45.2582 
    6.8284 	   52.6265 	   23.0000 	   46.0000 	   45.2992 
    6.8132 	   52.6460 	   23.0000 	   46.0000 	   45.3382 
    6.8437 	   52.6670 	   23.0000 	   46.0000 	   45.3802 
    6.8437 	   52.6885 	   23.0000 	   46.0000 	   45.4232 
    6.9200 	   52.7085 	   23.0000 	   46.0000 	   45.4632 
    6.7521 	   52.7300 	   23.0000 	   46.0000 	   45.5062 
    6.9505 	   52.7500 	   23.0000 	   46.0000 	   45.5462 
    6.9200 	   52.7685 	   23.0000 	   46.0000 	   45.5832 
    6.9505 	   52.7870 	   23.0000 	   46.0000 	   45.6202 
    6.8132 	   52.8090 	   23.0000 	   46.0000 	   45.6642 
    6.9047 	   52.8285 	   23.0000 	   46.0000 	   45.7033 
    6.8894 	   52.8490 	   23.0000 	   46.0000 	   45.7443 
    7.0573 	   52.8690 	   23.0000 	   46.0000 	   45.7843 
    6.8742 	   52.8895 	   23.0000 	   46.0000 	   45.8253 
    6.9200 	   52.9115 	   23.0000 	   46.0000 	   45.8693 
    6.6758 	   52.9325 	   23.0000 	   46.0000 	   45.9113 
    6.8437 	   52.9530 	   23.0000 	   46.0000 	   45.9523 
    6.9657 	   52.9740 	   23.0000 	   46.0000 	   45.9943 
    6.9047 	   52.9945 	   23.0000 	   46.0000 	   46.0353 
    6.9810 	   53.0165 	   23.0000 	   46.0000 	   46.0793 
    6.8437 	   53.0375 	   23.0000 	   46.0000 	   46.1213 
    7.0878 	   53.0585 	   23.0000 	   46.0000 	   46.1633 
    6.8284 	   53.0785 	   23.0000 	   46.0000 	   46.2033 
    6.9963 	   53.0985 	   23.0000 	   46.0000 	   46.2433 
    6.9505 	   53.1200 	   23.0000 	   46.0000 	   46.2863 
    7.1336 	   53.1410 	   23.0000 	   46.0000 	   46.3283 
    6.9200 	   53.1630 	   23.0000 	   46.0000 	   46.3723 
    6.8894 	   53.1840 	   23.0000 	   46.0000 	   46.4143 
    6.9963 	   53.2050 	   23.0000 	   46.0000 	   46.4563 
    6.9505 	   53.2240 	   23.0000 	   46.0000 	   46.4943 
    6.9505 	   53.2435 	   23.0000 	   46.0000 	   46.5333 
    6.9352 	   53.2620 	   23.0000 	   46.0000 	   46.5703 
    7.0420 	   53.2810 	   23.0000 	   46.0000 	   46.6083 
    7.0573 	   53.3000 	   23.0000 	   46.0000 	   46.6463 
    7.1489 	   53.3200 	   23.0000 	   46.0000 	   46.6863 
    6.9200 	   53.3425 	   23.0000 	   46.0000 	   46.7313 
    7.0726 	   53.3635 	   23.0000 	   46.0000 	   46.7733 
    6.9963 	   53.3845 	   23.0000 	   46.0000 	   46.8153 
    7.1794 	   53.4045 	   23.0000 	   46.0000 	   46.8553 
    7.0268 	   53.4260 	   23.0000 	   46.0000 	   46.8983 
    7.0573 	   53.4480 	   23.0000 	   46.0000 	   46.9423 
    7.0115 	   53.4685 	   23.0000 	   46.0000 	   46.9833 
    6.8894 	   53.4895 	   23.0000 	   46.0000 	   47.0253 
    7.0726 	   53.5105 	   23.0000 	   46.0000 	   47.0673 
    7.1336 	   53.5320 	   23.0000 	   46.0000 	   47.1103 
    7.1183 	   53.5530 	   23.0000 	   46.0000 	   47.1523 
    7.0878 	   53.5740 	   23.0000 	   46.0000 	   47.1943 
    7.0878 	   53.5950 	   23.0000 	   46.0000 	   47.2363 
    7.1489 	   53.6160 	   23.0000 	   46.0000 	   47.2783 
    7.0420 	   53.6360 	   23.0000 	   46.0000 	   47.3183 
    6.9505 	   53.6575 	   23.0000 	   46.0000 	   47.3613 
    6.8589 	   53.6785 	   23.0000 	   46.0000 	   47.4033 
    7.1183 	   53.7005 	   23.0000 	   46.0000 	   47.4473 
    7.1336 	   53.7210 	   23.0000 	   46.0000 	   47.4883 
    7.1336 	   53.7425 	   23.0000 	   46.0000 	   47.5314 
    6.7369 	   53.7645 	   23.0000 	   46.0000 	   47.5754 
    7.1489 	   53.7840 	   23.0000 	   46.0000 	   47.6144 
    7.1183 	   53.8060 	   23.0000 	   46.0000 	   47.6584 
    7.1183 	   53.8280 	   23.0000 	   46.0000 	   47.7024 
    6.9352 	   53.8480 	   23.0000 	   46.0000 	   47.7424 
    7.1489 	   53.8685 	   23.0000 	   46.0000 	   47.7834 
    7.1946 	   53.8870 	   23.0000 	   46.0000 	   47.8204 
    7.2251 	   53.9080 	   23.0000 	   46.0000 	   47.8624 
    7.0878 	   53.9290 	   23.0000 	   46.0000 	   47.9044 
    7.1641 	   53.9520 	   23.0000 	   46.0000 	   47.9504 
    7.0115 	   53.9705 	   23.0000 	   46.0000 	   47.9874 
    7.0268 	   53.9895 	   23.0000 	   46.0000 	   48.0254 
    7.0115 	   54.0080 	   23.0000 	   46.0000 	   48.0624 
    7.1489 	   54.0270 	   23.0000 	   46.0000 	   48.1004 
    7.2709 	   54.0480 	   23.0000 	   46.0000 	   48.1424 
    7.2557 	   54.0670 	   23.0000 	   46.0000 	   48.1804 
    7.3167 	   54.0860 	   23.0000 	   46.0000 	   48.2184 
    7.0878 	   54.1055 	   23.0000 	   46.0000 	   48.2574 
    7.1489 	   54.1245 	   23.0000 	   46.0000 	   48.2954 
    7.1946 	   54.1435 	   23.0000 	   46.0000 	   48.3334 
    7.3777 	   54.1635 	   23.0000 	   46.0000 	   48.3734 
    7.2251 	   54.1830 	   23.0000 	   46.0000 	   48.4124 
    7.2099 	   54.2025 	   23.0000 	   46.0000 	   48.4514 
    6.9657 	   54.2210 	   23.0000 	   46.0000 	   48.4884 
    7.2404 	   54.2400 	   23.0000 	   46.0000 	   48.5264 
    7.3472 	   54.2585 	   23.0000 	   46.0000 	   48.5634 
    7.1794 	   54.2785 	   23.0000 	   46.0000 	   48.6034 
    7.2709 	   54.3000 	   23.0000 	   46.0000 	   48.6464 
    7.2099 	   54.3205 	   23.0000 	   46.0000 	   48.6874 
    7.2557 	   54.3425 	   23.0000 	   46.0000 	   48.7314 
    7.1946 	   54.3640 	   23.0000 	   46.0000 	   48.7744 
    7.2557 	   54.3840 	   23.0000 	   46.0000 	   48.8144 
    7.1946 	   54.4055 	   23.0000 	   46.0000 	   48.8574 
    7.2557 	   54.4275 	   23.0000 	   46.0000 	   48.9014 
    7.2251 	   54.4495 	   23.0000 	   46.0000 	   48.9454 
    7.4083 	   54.4710 	   23.0000 	   46.0000 	   48.9884 
    7.2099 	   54.4925 	   23.0000 	   46.0000 	   49.0314 
    7.2557 	   54.5150 	   23.0000 	   46.0000 	   49.0764 
    7.2099 	   54.5360 	   23.0000 	   46.0000 	   49.1184 
    7.3625 	   54.5570 	   23.0000 	   46.0000 	   49.1604 
    7.2251 	   54.5775 	   23.0000 	   46.0000 	   49.2015 
    7.4540 	   54.5985 	   23.0000 	   46.0000 	   49.2435 
    7.3625 	   54.6195 	   23.0000 	   46.0000 	   49.2855 
    7.3014 	   54.6405 	   23.0000 	   46.0000 	   49.3275 
    6.9963 	   54.6615 	   23.0000 	   46.0000 	   49.3695 
    7.2862 	   54.6835 	   23.0000 	   46.0000 	   49.4135 
    7.4235 	   54.7050 	   23.0000 	   46.0000 	   49.4565 
    7.3777 	   54.7265 	   23.0000 	   46.0000 	   49.4995 
    7.2099 	   54.7475 	   23.0000 	   46.0000 	   49.5415 
    7.3320 	   54.7680 	   23.0000 	   46.0000 	   49.5825 
    7.4388 	   54.7880 	   23.0000 	   46.0000 	   49.6225 
    7.3777 	   54.8110 	   23.0000 	   46.0000 	   49.6685 
    7.4845 	   54.8325 	   23.0000 	   46.0000 	   49.7115 
    7.3472 	   54.8540 	   23.0000 	   46.0000 	   49.7545 
    7.5151 	   54.8750 	   23.0000 	   46.0000 	   49.7965 
    7.4388 	   54.8955 	   23.0000 	   46.0000 	   49.8375 
    7.4388 	   54.9165 	   23.0000 	   46.0000 	   49.8795 
    7.4845 	   54.9380 	   23.0000 	   46.0000 	   49.9225 
    7.3625 	   54.9595 	   23.0000 	   46.0000 	   49.9655 
    7.3777 	   54.9810 	   23.0000 	   46.0000 	   50.0085 
    7.5456 	   55.0010 	   23.0000 	   46.0000 	   50.0485 
    7.4693 	   55.0235 	   23.0000 	   46.0000 	   50.0935 
    7.3472 	   55.0465 	   23.0000 	   46.0000 	   50.1395 
    7.4540 	   55.0675 	   23.0000 	   46.0000 	   50.1815 
    7.5456 	   55.0890 	   23.0000 	   46.0000 	   50.2245 
    7.3930 	   55.1100 	   23.0000 	   46.0000 	   50.2665 
    7.3930 	   55.1315 	   23.0000 	   46.0000 	   50.3095 
    7.4540 	   55.1535 	   23.0000 	   46.0000 	   50.3535 
    7.4998 	   55.1745 	   23.0000 	   46.0000 	   50.3955 
    7.3625 	   55.1960 	   23.0000 	   46.0000 	   50.4385 
    7.4998 	   55.2175 	   23.0000 	   46.0000 	   50.4815 
    7.5456 	   55.2390 	   23.0000 	   46.0000 	   50.5245 
    7.3930 	   55.2595 	   23.0000 	   46.0000 	   50.5655 
    7.4235 	   55.2790 	   23.0000 	   46.0000 	   50.6045 
    7.5151 	   55.3015 	   23.0000 	   46.0000 	   50.6495 
    7.5151 	   55.3230 	   23.0000 	   46.0000 	   50.6925 
    7.4693 	   55.3445 	   23.0000 	   46.0000 	   50.7355 
    7.4235 	   55.3655 	   23.0000 	   46.0000 	   50.7765 
    7.4235 	   55.3870 	   23.0000 	   46.0000 	   50.8205 
    7.6219 	   55.4075 	   23.0000 	   46.0000 	   50.8615 
    7.4998 	   55.4280 	   23.0000 	   46.0000 	   50.9025 
    7.3930 	   55.4505 	   23.0000 	   46.0000 	   50.9475 
    7.4998 	   55.4730 	   23.0000 	   46.0000 	   50.9926 
    7.6066 	   55.4915 	   23.0000 	   46.0000 	   51.0296 
    7.5456 	   55.5110 	   23.0000 	   46.0000 	   51.0686 
    7.5151 	   55.5300 	   23.0000 	   46.0000 	   51.1066 
    7.5151 	   55.5490 	   23.0000 	   46.0000 	   51.1446 
    7.4540 	   55.5680 	   23.0000 	   46.0000 	   51.1826 
    7.5151 	   55.5870 	   23.0000 	   46.0000 	   51.2206 
    7.6524 	   55.6060 	   23.0000 	   46.0000 	   51.2586 
    7.6371 	   55.6250 	   23.0000 	   46.0000 	   51.2966 
    7.5761 	   55.6440 	   23.0000 	   46.0000 	   51.3346 
    7.4540 	   55.6630 	   23.0000 	   46.0000 	   51.3726 
    7.6219 	   55.6815 	   23.0000 	   46.0000 	   51.4096 
    7.5761 	   55.7010 	   23.0000 	   46.0000 	   51.4486 
    7.7440 	   55.7200 	   23.0000 	   46.0000 	   51.4866 
    7.6371 	   55.7390 	   23.0000 	   46.0000 	   51.5246 
    7.6982 	   55.7580 	   23.0000 	   46.0000 	   51.5626 
    7.6219 	   55.7790 	   23.0000 	   46.0000 	   51.6046 
    7.6219 	   55.8060 	   23.0000 	   46.0000 	   51.6586 
    7.6524 	   55.8225 	   23.0000 	   46.0000 	   51.6916 
    7.5761 	   55.8410 	   23.0000 	   46.0000 	   51.7286 
    7.7592 	   55.8600 	   23.0000 	   46.0000 	   51.7666 
    7.5608 	   55.8805 	   23.0000 	   46.0000 	   51.8076 
    7.7287 	   55.9015 	   23.0000 	   46.0000 	   51.8496 
    7.5456 	   55.9215 	   23.0000 	   46.0000 	   51.8896 
    7.7134 	   55.9400 	   23.0000 	   46.0000 	   51.9266 
    7.7897 	   55.9610 	   23.0000 	   46.0000 	   51.9686 
    7.6066 	   55.9820 	   23.0000 	   46.0000 	   52.0106 
    7.5914 	   56.0030 	   23.0000 	   46.0000 	   52.0526 
    7.5914 	   56.0250 	   23.0000 	   46.0000 	   52.0966 
    7.8050 	   56.0470 	   23.0000 	   46.0000 	   52.1406 
    7.6371 	   56.0670 	   23.0000 	   46.0000 	   52.1806 
    7.6524 	   56.0885 	   23.0000 	   46.0000 	   52.2236 
    7.7440 	   56.1070 	   23.0000 	   46.0000 	   52.2606 
    7.5303 	   56.1260 	   23.0000 	   46.0000 	   52.2986 
    7.7134 	   56.1450 	   23.0000 	   46.0000 	   52.3366 
    7.6829 	   56.1640 	   23.0000 	   46.0000 	   52.3746 
    7.6066 	   56.1825 	   23.0000 	   46.0000 	   52.4116 
    7.7440 	   56.2015 	   23.0000 	   46.0000 	   52.4496 
    7.7287 	   56.2205 	   23.0000 	   46.0000 	   52.4876 
    7.7287 	   56.2395 	   23.0000 	   46.0000 	   52.5256 
    7.7440 	   56.2605 	   23.0000 	   46.0000 	   52.5676 
    7.7134 	   56.2805 	   23.0000 	   46.0000 	   52.6076 
    7.7745 	   56.3015 	   23.0000 	   46.0000 	   52.6496 
    7.6219 	   56.3225 	   23.0000 	   46.0000 	   52.6917 
    7.7592 	   56.3425 	   23.0000 	   46.0000 	   52.7317 
    7.8050 	   56.3640 	   23.0000 	   46.0000 	   52.7747 
    7.8050 	   56.3845 	   23.0000 	   46.0000 	   52.8157 
    7.8813 	   56.4045 	   23.0000 	   46.0000 	   52.8557 
    7.9271 	   56.4235 	   23.0000 	   46.0000 	   52.8937 
    7.7897 	   56.4420 	   23.0000 	   46.0000 	   52.9307 
    7.7745 	   56.4615 	   23.0000 	   46.0000 	   52.9697 
    7.9423 	   56.4810 	   23.0000 	   46.0000 	   53.0087 
    7.7745 	   56.5000 	   23.0000 	   46.0000 	   53.0467 
    7.4845 	   56.5190 	   23.0000 	   46.0000 	   53.0847 
    7.9118 	   56.5380 	   23.0000 	   46.0000 	   53.1227 
    7.9118 	   56.5570 	   23.0000 	   46.0000 	   53.1607 
    7.8508 	   56.5760 	   23.0000 	   46.0000 	   53.1987 
    7.8050 	   56.5950 	   23.0000 	   46.0000 	   53.2367 
    7.8813 	   56.6135 	   23.0000 	   46.0000 	   53.2737 
    7.8965 	   56.6330 	   23.0000 	   46.0000 	   53.3127 
    7.9118 	   56.6515 	   23.0000 	   46.0000 	   53.3497 
    7.9728 	   56.6710 	   23.0000 	   46.0000 	   53.3887 
    7.7897 	   56.6900 	   23.0000 	   46.0000 	   53.4267 
    7.6524 	   56.7090 	   23.0000 	   46.0000 	   53.4647 
    7.7897 	   56.7280 	   23.0000 	   46.0000 	   53.5027 
    7.8965 	   56.7475 	   23.0000 	   46.0000 	   53.5417 
    7.9728 	   56.7675 	   23.0000 	   46.0000 	   53.5817 
    8.0034 	   56.7870 	   23.0000 	   46.0000 	   53.6207 
    7.8355 	   56.8060 	   23.0000 	   46.0000 	   53.6587 
    7.8508 	   56.8270 	   23.0000 	   46.0000 	   53.7007 
    7.9576 	   56.8460 	   23.0000 	   46.0000 	   53.7387 
    8.1102 	   56.8665 	   23.0000 	   46.0000 	   53.7797 
    7.9576 	   56.8880 	   23.0000 	   46.0000 	   53.8227 
    7.9271 	   56.9075 	   23.0000 	   46.0000 	   53.8617 
    7.8508 	   56.9265 	   23.0000 	   46.0000 	   53.8997 
    7.9423 	   56.9455 	   23.0000 	   46.0000 	   53.9377 
    7.8660 	   56.9650 	   23.0000 	   46.0000 	   53.9767 
    7.9271 	   56.9835 	   23.0000 	   46.0000 	   54.0137 
    8.0797 	   57.0050 	   23.0000 	   46.0000 	   54.0567 
    7.9271 	   57.0260 	   23.0000 	   46.0000 	   54.0987 
    8.0186 	   57.0460 	   23.0000 	   46.0000 	   54.1387 
    8.0034 	   57.0660 	   23.0000 	   46.0000 	   54.1787 
    7.9881 	   57.0870 	   23.0000 	   46.0000 	   54.2207 
    8.0644 	   57.1065 	   23.0000 	   46.0000 	   54.2597 
    8.0644 	   57.1255 	   23.0000 	   46.0000 	   54.2977 
    8.0339 	   57.1445 	   23.0000 	   46.0000 	   54.3357 
    8.1407 	   57.1645 	   23.0000 	   46.0000 	   54.3757 
    8.0034 	   57.1850 	   23.0000 	   46.0000 	   54.4167 
    7.8813 	   57.2060 	   23.0000 	   46.0000 	   54.4588 
    8.1102 	   57.2280 	   23.0000 	   46.0000 	   54.5028 
    8.1407 	   57.2490 	   23.0000 	   46.0000 	   54.5448 
    8.1712 	   57.2690 	   23.0000 	   46.0000 	   54.5848 
    7.9576 	   57.2885 	   23.0000 	   46.0000 	   54.6238 
    7.9423 	   57.3070 	   23.0000 	   46.0000 	   54.6608 
    8.1102 	   57.3260 	   23.0000 	   46.0000 	   54.6988 
    8.0491 	   57.3450 	   23.0000 	   46.0000 	   54.7368 
    8.0797 	   57.3640 	   23.0000 	   46.0000 	   54.7748 
    8.1407 	   57.3830 	   23.0000 	   46.0000 	   54.8128 
    8.1407 	   57.4020 	   23.0000 	   46.0000 	   54.8508 
    8.0491 	   57.4210 	   23.0000 	   46.0000 	   54.8888 
    7.7592 	   57.4400 	   23.0000 	   46.0000 	   54.9268 
    8.1559 	   57.4590 	   23.0000 	   46.0000 	   54.9648 
    8.0797 	   57.4805 	   23.0000 	   46.0000 	   55.0078 
    8.1865 	   57.5020 	   23.0000 	   46.0000 	   55.0508 
    7.8965 	   57.5235 	   23.0000 	   46.0000 	   55.0938 
    8.0797 	   57.5440 	   23.0000 	   46.0000 	   55.1348 
    8.2628 	   57.5650 	   23.0000 	   46.0000 	   55.1768 
    8.0797 	   57.5855 	   23.0000 	   46.0000 	   55.2178 
    8.2475 	   57.6075 	   23.0000 	   46.0000 	   55.2618 
    8.1559 	   57.6265 	   23.0000 	   46.0000 	   55.2998 
    7.8813 	   57.6460 	   23.0000 	   46.0000 	   55.3388 
    8.1407 	   57.6650 	   23.0000 	   46.0000 	   55.3768 
    8.1102 	   57.6840 	   23.0000 	   46.0000 	   55.4148 
    8.2322 	   57.7030 	   23.0000 	   46.0000 	   55.4528 
    8.2780 	   57.7220 	   23.0000 	   46.0000 	   55.4908 
    8.2780 	   57.7415 	   23.0000 	   46.0000 	   55.5298 
    8.3238 	   57.7635 	   23.0000 	   46.0000 	   55.5738 
    8.3238 	   57.7825 	   23.0000 	   46.0000 	   55.6118 
    8.1102 	   57.8060 	   23.0000 	   46.0000 	   55.6588 
    8.3238 	   57.8270 	   23.0000 	   46.0000 	   55.7008 
    8.3238 	   57.8490 	   23.0000 	   46.0000 	   55.7448 
    8.2475 	   57.8675 	   23.0000 	   46.0000 	   55.7818 
    8.3848 	   57.8875 	   23.0000 	   46.0000 	   55.8218 
    8.2322 	   57.9065 	   23.0000 	   46.0000 	   55.8598 
    7.9271 	   57.9255 	   23.0000 	   46.0000 	   55.8978 
    8.2628 	   57.9445 	   23.0000 	   46.0000 	   55.9358 
    8.3085 	   57.9635 	   23.0000 	   46.0000 	   55.9738 
    8.2628 	   57.9825 	   23.0000 	   46.0000 	   56.0118 
    8.4001 	   58.0015 	   23.0000 	   46.0000 	   56.0498 
    8.3543 	   58.0215 	   23.0000 	   46.0000 	   56.0898 
    8.2170 	   58.0615 	   23.0000 	   46.0000 	   56.1698 
    8.2628 	   58.0810 	   23.0000 	   46.0000 	   56.2089 
    8.3543 	   58.1010 	   23.0000 	   46.0000 	   56.2489 
    8.3085 	   58.1215 	   23.0000 	   46.0000 	   56.2899 
    8.3391 	   58.1425 	   23.0000 	   46.0000 	   56.3319 
    8.2170 	   58.1645 	   23.0000 	   46.0000 	   56.3759 
    8.2322 	   58.1865 	   23.0000 	   46.0000 	   56.4199 
    8.3696 	   58.2075 	   23.0000 	   46.0000 	   56.4619 
    8.3238 	   58.2295 	   23.0000 	   46.0000 	   56.5059 
    8.2780 	   58.2505 	   23.0000 	   46.0000 	   56.5479 
    8.3848 	   58.2710 	   23.0000 	   46.0000 	   56.5889 
    8.4153 	   58.2925 	   23.0000 	   46.0000 	   56.6319 
    8.4306 	   58.3135 	   23.0000 	   46.0000 	   56.6739 
    8.0034 	   58.3350 	   23.0000 	   46.0000 	   56.7169 
    8.4306 	   58.3560 	   23.0000 	   46.0000 	   56.7589 
    8.4001 	   58.3770 	   23.0000 	   46.0000 	   56.8009 
    8.4611 	   58.3990 	   23.0000 	   46.0000 	   56.8449 
    8.4459 	   58.4210 	   23.0000 	   46.0000 	   56.8889 
    8.4611 	   58.4415 	   23.0000 	   46.0000 	   56.9299 
    8.4611 	   58.4635 	   23.0000 	   46.0000 	   56.9739 
    8.3543 	   58.4855 	   23.0000 	   46.0000 	   57.0179 
    8.3543 	   58.5070 	   23.0000 	   46.0000 	   57.0609 
    8.4764 	   58.5290 	   23.0000 	   46.0000 	   57.1049 
    8.4459 	   58.5505 	   23.0000 	   46.0000 	   57.1479 
    8.5069 	   58.5715 	   23.0000 	   46.0000 	   57.1899 
    8.4153 	   58.5925 	   23.0000 	   46.0000 	   57.2319 
    8.4764 	   58.6135 	   23.0000 	   46.0000 	   57.2739 
    8.4611 	   58.6355 	   23.0000 	   46.0000 	   57.3179 
    8.4764 	   58.6570 	   23.0000 	   46.0000 	   57.3609 
    8.4764 	   58.6785 	   23.0000 	   46.0000 	   57.4039 
    8.4611 	   58.6995 	   23.0000 	   46.0000 	   57.4459 
    8.5679 	   58.7215 	   23.0000 	   46.0000 	   57.4899 
    8.5069 	   58.7430 	   23.0000 	   46.0000 	   57.5329 
    8.4459 	   58.7655 	   23.0000 	   46.0000 	   57.5779 
    8.4306 	   58.7875 	   23.0000 	   46.0000 	   57.6219 
    8.5679 	   58.8090 	   23.0000 	   46.0000 	   57.6649 
    8.5679 	   58.8315 	   23.0000 	   46.0000 	   57.7099 
    8.6442 	   58.8535 	   23.0000 	   46.0000 	   57.7539 
    8.5832 	   58.8745 	   23.0000 	   46.0000 	   57.7959 
    8.4459 	   58.8985 	   23.0000 	   46.0000 	   57.8439 
    8.5222 	   58.9190 	   23.0000 	   46.0000 	   57.8849 
    8.2933 	   58.9415 	   23.0000 	   46.0000 	   57.9300 
    8.7205 	   58.9640 	   23.0000 	   46.0000 	   57.9750 
    8.6290 	   58.9845 	   23.0000 	   46.0000 	   58.0160 
    8.6900 	   59.0065 	   23.0000 	   46.0000 	   58.0600 
    8.6442 	   59.0285 	   23.0000 	   46.0000 	   58.1040 
    8.5374 	   59.0480 	   23.0000 	   46.0000 	   58.1430 
    8.7816 	   59.0675 	   23.0000 	   46.0000 	   58.1820 
    8.7510 	   59.0865 	   23.0000 	   46.0000 	   58.2200 
    8.7358 	   59.1060 	   23.0000 	   46.0000 	   58.2590 
    8.7053 	   59.1250 	   23.0000 	   46.0000 	   58.2970 
    8.6748 	   59.1440 	   23.0000 	   46.0000 	   58.3350 
    8.7358 	   59.1635 	   23.0000 	   46.0000 	   58.3740 
    8.7510 	   59.1825 	   23.0000 	   46.0000 	   58.4120 
    8.6748 	   59.2020 	   23.0000 	   46.0000 	   58.4510 
    8.8273 	   59.2210 	   23.0000 	   46.0000 	   58.4890 
    8.6442 	   59.2410 	   23.0000 	   46.0000 	   58.5290 
    8.6748 	   59.2625 	   23.0000 	   46.0000 	   58.5720 
    8.8121 	   59.2820 	   23.0000 	   46.0000 	   58.6110 
    8.6748 	   59.3015 	   23.0000 	   46.0000 	   58.6500 
    8.7205 	   59.3205 	   23.0000 	   46.0000 	   58.6880 
    8.5985 	   59.3400 	   23.0000 	   46.0000 	   58.7270 
    8.6900 	   59.3595 	   23.0000 	   46.0000 	   58.7660 
    8.7663 	   59.3800 	   23.0000 	   46.0000 	   58.8070 
    8.7968 	   59.4010 	   23.0000 	   46.0000 	   58.8490 
    8.7510 	   59.4210 	   23.0000 	   46.0000 	   58.8890 
    8.7358 	   59.4405 	   23.0000 	   46.0000 	   58.9280 
    8.7968 	   59.4600 	   23.0000 	   46.0000 	   58.9670 
    8.9036 	   59.4790 	   23.0000 	   46.0000 	   59.0050 
    8.8884 	   59.4980 	   23.0000 	   46.0000 	   59.0430 
    8.6290 	   59.5175 	   23.0000 	   46.0000 	   59.0820 
    8.7816 	   59.5365 	   23.0000 	   46.0000 	   59.1200 
    8.8579 	   59.5560 	   23.0000 	   46.0000 	   59.1590 
    8.7663 	   59.5750 	   23.0000 	   46.0000 	   59.1970 
    8.7968 	   59.5970 	   23.0000 	   46.0000 	   59.2410 
    8.8121 	   59.6175 	   23.0000 	   46.0000 	   59.2820 
    8.8426 	   59.6375 	   23.0000 	   46.0000 	   59.3220 
    8.7816 	   59.6575 	   23.0000 	   46.0000 	   59.3620 
    8.8121 	   59.6770 	   23.0000 	   46.0000 	   59.4010 
    8.8731 	   59.6965 	   23.0000 	   46.0000 	   59.4400 
    8.8731 	   59.7160 	   23.0000 	   46.0000 	   59.4790 
    8.6748 	   59.7350 	   23.0000 	   46.0000 	   59.5170 
    9.0410 	   59.7555 	   23.0000 	   46.0000 	   59.5580 
    8.9799 	   59.7770 	   23.0000 	   46.0000 	   59.6010 
    8.9036 	   59.8055 	   23.0000 	   46.0000 	   59.6580 
    8.9189 	   59.8240 	   23.0000 	   46.0000 	   59.6950 
    8.9189 	   59.8450 	   23.0000 	   46.0000 	   59.7371 
    8.8884 	   59.8665 	   23.0000 	   46.0000 	   59.7801 
    8.8884 	   59.8875 	   23.0000 	   46.0000 	   59.8221 
    8.8884 	   59.9075 	   23.0000 	   46.0000 	   59.8621 
    8.9342 	   59.9265 	   23.0000 	   46.0000 	   59.9001 
    8.6900 	   59.9455 	   23.0000 	   46.0000 	   59.9381 
    8.9952 	   59.9660 	   23.0000 	   46.0000 	   59.9791 
    8.9647 	   59.9875 	   23.0000 	   47.0000 	    0.0221 
    8.8731 	   60.0075 	   23.0000 	   47.0000 	    0.0621 
    8.9494 	   60.0265 	   23.0000 	   47.0000 	    0.1001 
    8.9494 	   60.0470 	   23.0000 	   47.0000 	    0.1411 
    8.9952 	   60.0660 	   23.0000 	   47.0000 	    0.1791 
    8.9647 	   60.0855 	   23.0000 	   47.0000 	    0.2181 
