Thayer School of Engineering        Instron 4442 Mechanical Testing System
7/9/2018 2:36:33 AM

  Force (N)	Extension (mm)	Not Used	Not Used	Not Used	     Hour	    Minute	    Second
    0.4654 	    2.0480 	    2.0000 	   36.0000 	   57.4263 
    0.3891 	    2.1020 	    2.0000 	   36.0000 	   57.4533 
    0.6485 	    2.2320 	    2.0000 	   36.0000 	   57.5183 
    0.4654 	    2.3520 	    2.0000 	   36.0000 	   57.5783 
    0.4959 	    2.4600 	    2.0000 	   36.0000 	   57.6323 
    0.3433 	    2.5620 	    2.0000 	   36.0000 	   57.6833 
    0.5112 	    2.6260 	    2.0000 	   36.0000 	   57.7153 
    0.3586 	    2.7400 	    2.0000 	   36.0000 	   57.7723 
    0.5264 	    2.8440 	    2.0000 	   36.0000 	   57.8243 
    0.5112 	    2.9480 	    2.0000 	   36.0000 	   57.8764 
    0.2976 	    3.0520 	    2.0000 	   36.0000 	   57.9284 
    0.5112 	    3.1220 	    2.0000 	   36.0000 	   57.9634 
    0.3891 	    3.2360 	    2.0000 	   36.0000 	   58.0204 
    0.3586 	    3.3440 	    2.0000 	   36.0000 	   58.0744 
    0.4959 	    3.4500 	    2.0000 	   36.0000 	   58.1274 
    0.3433 	    3.5560 	    2.0000 	   36.0000 	   58.1804 
    0.5570 	    3.6600 	    2.0000 	   36.0000 	   58.2324 
    0.3891 	    3.7640 	    2.0000 	   36.0000 	   58.2844 
    0.4959 	    3.8700 	    2.0000 	   36.0000 	   58.3364 
    0.4959 	    3.9780 	    2.0000 	   36.0000 	   58.3914 
    0.2060 	    4.0860 	    2.0000 	   36.0000 	   58.4454 
    0.6332 	    4.1540 	    2.0000 	   36.0000 	   58.4794 
    0.4501 	    4.2720 	    2.0000 	   36.0000 	   58.5384 
    0.4959 	    4.3800 	    2.0000 	   36.0000 	   58.5924 
    0.4349 	    4.4840 	    2.0000 	   36.0000 	   58.6444 
    0.4654 	    4.5940 	    2.0000 	   36.0000 	   58.6994 
    0.3586 	    4.6980 	    2.0000 	   36.0000 	   58.7514 
    0.4959 	    4.7980 	    2.0000 	   36.0000 	   58.8014 
    0.4654 	    4.9100 	    2.0000 	   36.0000 	   58.8574 
    0.4501 	    5.0140 	    2.0000 	   36.0000 	   58.9094 
    0.5264 	    5.0780 	    2.0000 	   36.0000 	   58.9414 
    0.4044 	    5.1900 	    2.0000 	   36.0000 	   58.9974 
    0.4349 	    5.2960 	    2.0000 	   36.0000 	   59.0504 
    0.6027 	    5.4020 	    2.0000 	   36.0000 	   59.1034 
    0.4349 	    5.4600 	    2.0000 	   36.0000 	   59.1324 
    0.5264 	    5.5740 	    2.0000 	   36.0000 	   59.1894 
    0.4349 	    5.6920 	    2.0000 	   36.0000 	   59.2484 
    0.3128 	    5.7940 	    2.0000 	   36.0000 	   59.2994 
    0.5570 	    5.8980 	    2.0000 	   36.0000 	   59.3514 
    0.6180 	    6.0000 	    2.0000 	   36.0000 	   59.4024 
    0.5875 	    6.1060 	    2.0000 	   36.0000 	   59.4554 
    0.4959 	    6.1740 	    2.0000 	   36.0000 	   59.4894 
    0.4196 	    6.2340 	    2.0000 	   36.0000 	   59.5194 
    0.3128 	    6.3480 	    2.0000 	   36.0000 	   59.5755 
    0.3128 	    6.4160 	    2.0000 	   36.0000 	   59.6095 
    0.3891 	    6.5360 	    2.0000 	   36.0000 	   59.6685 
    0.4959 	    6.5980 	    2.0000 	   36.0000 	   59.7005 
    0.2670 	    6.6620 	    2.0000 	   36.0000 	   59.7325 
    0.3891 	    6.7220 	    2.0000 	   36.0000 	   59.7625 
    0.4349 	    6.8420 	    2.0000 	   36.0000 	   59.8215 
    0.4501 	    6.9100 	    2.0000 	   36.0000 	   59.8565 
    0.4501 	    6.9740 	    2.0000 	   36.0000 	   59.8885 
    0.4349 	    7.0420 	    2.0000 	   36.0000 	   59.9225 
    0.5570 	    7.1100 	    2.0000 	   36.0000 	   59.9565 
    0.4654 	    7.1720 	    2.0000 	   36.0000 	   59.9875 
    0.5112 	    7.2380 	    2.0000 	   37.0000 	    0.0205 
    0.4349 	    7.2980 	    2.0000 	   37.0000 	    0.0505 
    0.6180 	    7.3640 	    2.0000 	   37.0000 	    0.0835 
    0.4959 	    7.4280 	    2.0000 	   37.0000 	    0.1155 
    0.5417 	    7.4920 	    2.0000 	   37.0000 	    0.1475 
    0.3738 	    7.5580 	    2.0000 	   37.0000 	    0.1805 
    0.6180 	    7.6220 	    2.0000 	   37.0000 	    0.2125 
    0.5112 	    7.6920 	    2.0000 	   37.0000 	    0.2475 
    0.5570 	    7.7600 	    2.0000 	   37.0000 	    0.2815 
    0.4959 	    7.8260 	    2.0000 	   37.0000 	    0.3145 
    0.3433 	    7.8960 	    2.0000 	   37.0000 	    0.3495 
    0.4959 	    7.9600 	    2.0000 	   37.0000 	    0.3815 
    0.4959 	    8.0260 	    2.0000 	   37.0000 	    0.4145 
    0.5264 	    8.0880 	    2.0000 	   37.0000 	    0.4455 
    0.5875 	    8.1540 	    2.0000 	   37.0000 	    0.4785 
    0.4959 	    8.2180 	    2.0000 	   37.0000 	    0.5105 
    0.4349 	    8.2860 	    2.0000 	   37.0000 	    0.5445 
    0.5875 	    8.3580 	    2.0000 	   37.0000 	    0.5805 
    0.3586 	    8.4260 	    2.0000 	   37.0000 	    0.6145 
    0.4349 	    8.4900 	    2.0000 	   37.0000 	    0.6465 
    0.5264 	    8.5540 	    2.0000 	   37.0000 	    0.6785 
    0.6332 	    8.6160 	    2.0000 	   37.0000 	    0.7095 
    0.3128 	    8.6820 	    2.0000 	   37.0000 	    0.7425 
    0.6332 	    8.7460 	    2.0000 	   37.0000 	    0.7745 
    0.4654 	    8.8100 	    2.0000 	   37.0000 	    0.8065 
    0.4501 	    8.8760 	    2.0000 	   37.0000 	    0.8395 
    0.4349 	    8.9420 	    2.0000 	   37.0000 	    0.8725 
    0.5264 	    8.9980 	    2.0000 	   37.0000 	    0.9005 
    0.5112 	    9.0620 	    2.0000 	   37.0000 	    0.9325 
    0.3738 	    9.1240 	    2.0000 	   37.0000 	    0.9635 
    0.4654 	    9.1940 	    2.0000 	   37.0000 	    0.9985 
    0.4959 	    9.2600 	    2.0000 	   37.0000 	    1.0315 
    0.3738 	    9.3200 	    2.0000 	   37.0000 	    1.0615 
    0.5570 	    9.3880 	    2.0000 	   37.0000 	    1.0955 
    0.5264 	    9.4520 	    2.0000 	   37.0000 	    1.1275 
    0.4501 	    9.5100 	    2.0000 	   37.0000 	    1.1565 
    0.4654 	    9.5680 	    2.0000 	   37.0000 	    1.1855 
    0.4959 	    9.6380 	    2.0000 	   37.0000 	    1.2205 
    0.4654 	    9.7020 	    2.0000 	   37.0000 	    1.2525 
    0.3586 	    9.7700 	    2.0000 	   37.0000 	    1.2865 
    0.4654 	    9.8360 	    2.0000 	   37.0000 	    1.3195 
    0.6485 	    9.8940 	    2.0000 	   37.0000 	    1.3486 
    0.5875 	    9.9600 	    2.0000 	   37.0000 	    1.3816 
    0.5264 	   10.0240 	    2.0000 	   37.0000 	    1.4136 
    0.5875 	   10.0920 	    2.0000 	   37.0000 	    1.4476 
    0.4349 	   10.1640 	    2.0000 	   37.0000 	    1.4836 
    0.5112 	   10.2240 	    2.0000 	   37.0000 	    1.5136 
    0.5112 	   10.2900 	    2.0000 	   37.0000 	    1.5466 
    0.4959 	   10.3580 	    2.0000 	   37.0000 	    1.5806 
    0.4959 	   10.4180 	    2.0000 	   37.0000 	    1.6106 
    0.5570 	   10.5140 	    2.0000 	   37.0000 	    1.6586 
    0.4807 	   10.5700 	    2.0000 	   37.0000 	    1.6866 
    0.4196 	   10.6300 	    2.0000 	   37.0000 	    1.7166 
    0.2213 	   10.6900 	    2.0000 	   37.0000 	    1.7466 
    0.5264 	   10.7580 	    2.0000 	   37.0000 	    1.7806 
    0.6027 	   10.8220 	    2.0000 	   37.0000 	    1.8126 
    0.4654 	   10.8900 	    2.0000 	   37.0000 	    1.8466 
    0.5722 	   10.9560 	    2.0000 	   37.0000 	    1.8796 
    0.5264 	   11.0180 	    2.0000 	   37.0000 	    1.9106 
    0.5722 	   11.0780 	    2.0000 	   37.0000 	    1.9406 
    0.4959 	   11.1420 	    2.0000 	   37.0000 	    1.9726 
    0.5112 	   11.2000 	    2.0000 	   37.0000 	    2.0016 
    0.4959 	   11.2640 	    2.0000 	   37.0000 	    2.0336 
    0.5875 	   11.3320 	    2.0000 	   37.0000 	    2.0676 
    0.6790 	   11.3900 	    2.0000 	   37.0000 	    2.0966 
    0.3738 	   11.4560 	    2.0000 	   37.0000 	    2.1296 
    0.5570 	   11.5160 	    2.0000 	   37.0000 	    2.1596 
    0.6027 	   11.5820 	    2.0000 	   37.0000 	    2.1926 
    0.5875 	   11.6460 	    2.0000 	   37.0000 	    2.2246 
    0.4501 	   11.7060 	    2.0000 	   37.0000 	    2.2546 
    0.5722 	   11.7680 	    2.0000 	   37.0000 	    2.2856 
    0.5875 	   11.8280 	    2.0000 	   37.0000 	    2.3156 
    0.5112 	   11.8900 	    2.0000 	   37.0000 	    2.3466 
    0.4501 	   11.9540 	    2.0000 	   37.0000 	    2.3786 
    0.5112 	   12.0160 	    2.0000 	   37.0000 	    2.4096 
    0.5417 	   12.0740 	    2.0000 	   37.0000 	    2.4386 
    0.4959 	   12.1400 	    2.0000 	   37.0000 	    2.4716 
    0.4807 	   12.1980 	    2.0000 	   37.0000 	    2.5006 
    0.4501 	   12.2600 	    2.0000 	   37.0000 	    2.5316 
    0.7248 	   12.3180 	    2.0000 	   37.0000 	    2.5606 
    0.4807 	   12.3820 	    2.0000 	   37.0000 	    2.5926 
    0.4196 	   12.4460 	    2.0000 	   37.0000 	    2.6246 
    0.5722 	   12.5100 	    2.0000 	   37.0000 	    2.6566 
    0.5570 	   12.5740 	    2.0000 	   37.0000 	    2.6886 
    0.5570 	   12.6340 	    2.0000 	   37.0000 	    2.7186 
    0.5417 	   12.6940 	    2.0000 	   37.0000 	    2.7486 
    0.6027 	   12.7620 	    2.0000 	   37.0000 	    2.7826 
    0.5112 	   12.8240 	    2.0000 	   37.0000 	    2.8136 
    0.5722 	   12.8840 	    2.0000 	   37.0000 	    2.8436 
    0.5264 	   12.9520 	    2.0000 	   37.0000 	    2.8776 
    0.4959 	   13.0120 	    2.0000 	   37.0000 	    2.9076 
    0.6638 	   13.0720 	    2.0000 	   37.0000 	    2.9376 
    0.5264 	   13.1400 	    2.0000 	   37.0000 	    2.9716 
    0.3281 	   13.2020 	    2.0000 	   37.0000 	    3.0026 
    0.6790 	   13.2660 	    2.0000 	   37.0000 	    3.0346 
    0.4959 	   13.3300 	    2.0000 	   37.0000 	    3.0666 
    0.5875 	   13.3960 	    2.0000 	   37.0000 	    3.0997 
    0.7401 	   13.4540 	    2.0000 	   37.0000 	    3.1287 
    0.6638 	   13.5160 	    2.0000 	   37.0000 	    3.1597 
    0.7401 	   13.5820 	    2.0000 	   37.0000 	    3.1927 
    0.3433 	   13.6420 	    2.0000 	   37.0000 	    3.2227 
    0.4196 	   13.7020 	    2.0000 	   37.0000 	    3.2527 
    0.7401 	   13.7680 	    2.0000 	   37.0000 	    3.2857 
    0.4196 	   13.8280 	    2.0000 	   37.0000 	    3.3157 
    0.7095 	   13.8900 	    2.0000 	   37.0000 	    3.3467 
    0.6180 	   13.9620 	    2.0000 	   37.0000 	    3.3827 
    0.4807 	   14.0200 	    2.0000 	   37.0000 	    3.4117 
    0.6180 	   14.0820 	    2.0000 	   37.0000 	    3.4427 
    0.4501 	   14.1540 	    2.0000 	   37.0000 	    3.4787 
    0.4654 	   14.2140 	    2.0000 	   37.0000 	    3.5087 
    0.6485 	   14.2740 	    2.0000 	   37.0000 	    3.5387 
    0.6638 	   14.3400 	    2.0000 	   37.0000 	    3.5717 
    0.4654 	   14.4020 	    2.0000 	   37.0000 	    3.6027 
    0.5875 	   14.4640 	    2.0000 	   37.0000 	    3.6337 
    0.6027 	   14.5380 	    2.0000 	   37.0000 	    3.6707 
    0.4807 	   14.5980 	    2.0000 	   37.0000 	    3.7007 
    0.5570 	   14.6680 	    2.0000 	   37.0000 	    3.7357 
    0.5875 	   14.7280 	    2.0000 	   37.0000 	    3.7657 
    0.7095 	   14.7860 	    2.0000 	   37.0000 	    3.7947 
    0.4501 	   14.8440 	    2.0000 	   37.0000 	    3.8237 
    0.6332 	   14.9140 	    2.0000 	   37.0000 	    3.8587 
    0.5112 	   14.9720 	    2.0000 	   37.0000 	    3.8877 
    0.4959 	   15.0320 	    2.0000 	   37.0000 	    3.9177 
    0.5722 	   15.0940 	    2.0000 	   37.0000 	    3.9487 
    0.5417 	   15.1660 	    2.0000 	   37.0000 	    3.9847 
    0.1907 	   15.2280 	    2.0000 	   37.0000 	    4.0157 
    0.3891 	   15.2880 	    2.0000 	   37.0000 	    4.0457 
    0.3738 	   15.4140 	    2.0000 	   37.0000 	    4.1087 
    0.3738 	   15.4720 	    2.0000 	   37.0000 	    4.1377 
    0.3128 	   15.5420 	    2.0000 	   37.0000 	    4.1727 
    0.6332 	   15.6000 	    2.0000 	   37.0000 	    4.2017 
    0.6485 	   15.6620 	    2.0000 	   37.0000 	    4.2327 
    0.5570 	   15.7300 	    2.0000 	   37.0000 	    4.2667 
    0.3891 	   15.7960 	    2.0000 	   37.0000 	    4.2997 
    0.6027 	   15.8580 	    2.0000 	   37.0000 	    4.3307 
    0.6638 	   15.9220 	    2.0000 	   37.0000 	    4.3627 
    0.4959 	   15.9880 	    2.0000 	   37.0000 	    4.3957 
    0.5875 	   16.0520 	    2.0000 	   37.0000 	    4.4277 
    0.7706 	   16.1180 	    2.0000 	   37.0000 	    4.4607 
    0.6943 	   16.1880 	    2.0000 	   37.0000 	    4.4957 
    0.6180 	   16.2480 	    2.0000 	   37.0000 	    4.5257 
    0.6638 	   16.3080 	    2.0000 	   37.0000 	    4.5557 
    0.5570 	   16.3800 	    2.0000 	   37.0000 	    4.5917 
    0.6027 	   16.4400 	    2.0000 	   37.0000 	    4.6217 
    0.4959 	   16.4960 	    2.0000 	   37.0000 	    4.6497 
    0.4654 	   16.5580 	    2.0000 	   37.0000 	    4.6807 
    0.6180 	   16.6240 	    2.0000 	   37.0000 	    4.7137 
    0.5875 	   16.6860 	    2.0000 	   37.0000 	    4.7447 
    0.4501 	   16.7600 	    2.0000 	   37.0000 	    4.7817 
    0.6790 	   16.8200 	    2.0000 	   37.0000 	    4.8117 
    0.3891 	   16.8840 	    2.0000 	   37.0000 	    4.8438 
    0.6332 	   16.9540 	    2.0000 	   37.0000 	    4.8788 
    0.5570 	   17.0180 	    2.0000 	   37.0000 	    4.9108 
    0.5570 	   17.0780 	    2.0000 	   37.0000 	    4.9408 
    0.5875 	   17.1460 	    2.0000 	   37.0000 	    4.9748 
    0.6027 	   17.2060 	    2.0000 	   37.0000 	    5.0048 
    0.5112 	   17.2700 	    2.0000 	   37.0000 	    5.0368 
    0.6943 	   17.3340 	    2.0000 	   37.0000 	    5.0688 
    0.6638 	   17.4040 	    2.0000 	   37.0000 	    5.1038 
    0.5264 	   17.4640 	    2.0000 	   37.0000 	    5.1338 
    0.6638 	   17.5360 	    2.0000 	   37.0000 	    5.1698 
    0.6180 	   17.5960 	    2.0000 	   37.0000 	    5.1998 
    0.3281 	   17.6660 	    2.0000 	   37.0000 	    5.2348 
    0.4807 	   17.7300 	    2.0000 	   37.0000 	    5.2668 
    0.5570 	   17.7960 	    2.0000 	   37.0000 	    5.2998 
    0.5722 	   17.8580 	    2.0000 	   37.0000 	    5.3308 
    0.6180 	   17.9320 	    2.0000 	   37.0000 	    5.3678 
    0.7248 	   17.9940 	    2.0000 	   37.0000 	    5.3988 
    0.5570 	   18.0600 	    2.0000 	   37.0000 	    5.4318 
    0.6638 	   18.1240 	    2.0000 	   37.0000 	    5.4638 
    0.6485 	   18.1980 	    2.0000 	   37.0000 	    5.5008 
    0.6332 	   18.2620 	    2.0000 	   37.0000 	    5.5328 
    0.6790 	   18.3240 	    2.0000 	   37.0000 	    5.5638 
    0.5264 	   18.3960 	    2.0000 	   37.0000 	    5.5998 
    0.6638 	   18.4580 	    2.0000 	   37.0000 	    5.6308 
    0.6332 	   18.5180 	    2.0000 	   37.0000 	    5.6608 
    0.7401 	   18.5820 	    2.0000 	   37.0000 	    5.6928 
    0.6943 	   18.6540 	    2.0000 	   37.0000 	    5.7288 
    0.6332 	   18.7180 	    2.0000 	   37.0000 	    5.7608 
    0.5722 	   18.7800 	    2.0000 	   37.0000 	    5.7918 
    0.8011 	   18.8400 	    2.0000 	   37.0000 	    5.8218 
    0.8316 	   18.9080 	    2.0000 	   37.0000 	    5.8558 
    0.7401 	   18.9740 	    2.0000 	   37.0000 	    5.8888 
    0.6943 	   19.0340 	    2.0000 	   37.0000 	    5.9188 
    0.3128 	   19.0980 	    2.0000 	   37.0000 	    5.9508 
    0.6790 	   19.1660 	    2.0000 	   37.0000 	    5.9848 
    0.4959 	   19.2280 	    2.0000 	   37.0000 	    6.0158 
    0.7706 	   19.2900 	    2.0000 	   37.0000 	    6.0468 
    0.5264 	   19.3520 	    2.0000 	   37.0000 	    6.0778 
    0.6332 	   19.4240 	    2.0000 	   37.0000 	    6.1138 
    0.5722 	   19.4880 	    2.0000 	   37.0000 	    6.1458 
    0.4807 	   19.5520 	    2.0000 	   37.0000 	    6.1778 
    0.5417 	   19.6140 	    2.0000 	   37.0000 	    6.2088 
    0.4349 	   19.6800 	    2.0000 	   37.0000 	    6.2418 
    0.6790 	   19.7400 	    2.0000 	   37.0000 	    6.2718 
    0.5722 	   19.8060 	    2.0000 	   37.0000 	    6.3048 
    0.7095 	   19.8680 	    2.0000 	   37.0000 	    6.3358 
    0.7858 	   19.9300 	    2.0000 	   37.0000 	    6.3668 
    0.5570 	   19.9960 	    2.0000 	   37.0000 	    6.3998 
    0.5722 	   20.0580 	    2.0000 	   37.0000 	    6.4308 
    0.5722 	   20.1200 	    2.0000 	   37.0000 	    6.4618 
    0.5112 	   20.1880 	    2.0000 	   37.0000 	    6.4958 
    0.6943 	   20.2520 	    2.0000 	   37.0000 	    6.5278 
    0.5570 	   20.3180 	    2.0000 	   37.0000 	    6.5608 
    0.6790 	   20.3820 	    2.0000 	   37.0000 	    6.5929 
    0.6485 	   20.4480 	    2.0000 	   37.0000 	    6.6259 
    0.6180 	   20.5120 	    2.0000 	   37.0000 	    6.6579 
    0.6332 	   20.5720 	    2.0000 	   37.0000 	    6.6879 
    0.6332 	   20.6360 	    2.0000 	   37.0000 	    6.7199 
    0.4196 	   20.6960 	    2.0000 	   37.0000 	    6.7499 
    0.4044 	   20.7600 	    2.0000 	   37.0000 	    6.7819 
    0.6943 	   20.8200 	    2.0000 	   37.0000 	    6.8119 
    0.6943 	   20.8840 	    2.0000 	   37.0000 	    6.8439 
    0.6180 	   20.9480 	    2.0000 	   37.0000 	    6.8759 
    0.7553 	   21.0060 	    2.0000 	   37.0000 	    6.9049 
    0.7858 	   21.0700 	    2.0000 	   37.0000 	    6.9369 
    0.6180 	   21.1400 	    2.0000 	   37.0000 	    6.9719 
    0.6790 	   21.2020 	    2.0000 	   37.0000 	    7.0029 
    0.6180 	   21.2640 	    2.0000 	   37.0000 	    7.0339 
    0.5264 	   21.3260 	    2.0000 	   37.0000 	    7.0649 
    0.7553 	   21.3880 	    2.0000 	   37.0000 	    7.0959 
    0.6332 	   21.4520 	    2.0000 	   37.0000 	    7.1279 
    0.5570 	   21.5140 	    2.0000 	   37.0000 	    7.1589 
    0.6790 	   21.5760 	    2.0000 	   37.0000 	    7.1899 
    0.7706 	   21.6420 	    2.0000 	   37.0000 	    7.2229 
    0.5722 	   21.7040 	    2.0000 	   37.0000 	    7.2539 
    0.5570 	   21.7660 	    2.0000 	   37.0000 	    7.2849 
    0.7248 	   21.8300 	    2.0000 	   37.0000 	    7.3169 
    0.7248 	   21.8960 	    2.0000 	   37.0000 	    7.3499 
    0.5722 	   21.9600 	    2.0000 	   37.0000 	    7.3819 
    0.6790 	   22.0240 	    2.0000 	   37.0000 	    7.4139 
    0.6485 	   22.0900 	    2.0000 	   37.0000 	    7.4469 
    0.7553 	   22.1600 	    2.0000 	   37.0000 	    7.4819 
    0.6485 	   22.2220 	    2.0000 	   37.0000 	    7.5129 
    0.7858 	   22.2860 	    2.0000 	   37.0000 	    7.5449 
    0.7706 	   22.3520 	    2.0000 	   37.0000 	    7.5779 
    0.7248 	   22.4120 	    2.0000 	   37.0000 	    7.6079 
    0.8164 	   22.4740 	    2.0000 	   37.0000 	    7.6389 
    0.6180 	   22.5360 	    2.0000 	   37.0000 	    7.6699 
    0.6485 	   22.6000 	    2.0000 	   37.0000 	    7.7019 
    0.1907 	   22.6700 	    2.0000 	   37.0000 	    7.7369 
    0.4196 	   22.7340 	    2.0000 	   37.0000 	    7.7689 
    0.6332 	   22.8020 	    2.0000 	   37.0000 	    7.8029 
    0.6638 	   22.8680 	    2.0000 	   37.0000 	    7.8359 
    0.6790 	   22.9340 	    2.0000 	   37.0000 	    7.8689 
    0.6943 	   22.9980 	    2.0000 	   37.0000 	    7.9009 
    0.5875 	   23.0640 	    2.0000 	   37.0000 	    7.9339 
    0.6027 	   23.1300 	    2.0000 	   37.0000 	    7.9669 
    0.8011 	   23.2020 	    2.0000 	   37.0000 	    8.0029 
    0.6485 	   23.2640 	    2.0000 	   37.0000 	    8.0339 
    0.4501 	   23.3300 	    2.0000 	   37.0000 	    8.0669 
    0.7401 	   23.3940 	    2.0000 	   37.0000 	    8.0989 
    0.6790 	   23.4600 	    2.0000 	   37.0000 	    8.1319 
    0.4044 	   23.5220 	    2.0000 	   37.0000 	    8.1629 
    0.6790 	   23.5840 	    2.0000 	   37.0000 	    8.1939 
    0.5722 	   23.6540 	    2.0000 	   37.0000 	    8.2289 
    0.3891 	   23.7180 	    2.0000 	   37.0000 	    8.2609 
    0.6485 	   23.7820 	    2.0000 	   37.0000 	    8.2929 
    0.5875 	   23.8460 	    2.0000 	   37.0000 	    8.3250 
    0.8164 	   23.9080 	    2.0000 	   37.0000 	    8.3560 
    0.6332 	   23.9720 	    2.0000 	   37.0000 	    8.3880 
    0.6790 	   24.0380 	    2.0000 	   37.0000 	    8.4210 
    0.6332 	   24.1020 	    2.0000 	   37.0000 	    8.4530 
    0.5417 	   24.1760 	    2.0000 	   37.0000 	    8.4900 
    0.7095 	   24.2360 	    2.0000 	   37.0000 	    8.5200 
    0.8621 	   24.3000 	    2.0000 	   37.0000 	    8.5520 
    0.5722 	   24.3660 	    2.0000 	   37.0000 	    8.5850 
    0.7095 	   24.4300 	    2.0000 	   37.0000 	    8.6170 
    0.8469 	   24.4920 	    2.0000 	   37.0000 	    8.6480 
    0.6790 	   24.5540 	    2.0000 	   37.0000 	    8.6790 
    0.6485 	   24.6200 	    2.0000 	   37.0000 	    8.7120 
    0.5722 	   24.6880 	    2.0000 	   37.0000 	    8.7460 
    0.6332 	   24.7520 	    2.0000 	   37.0000 	    8.7780 
    0.7706 	   24.8140 	    2.0000 	   37.0000 	    8.8090 
    0.7553 	   24.8780 	    2.0000 	   37.0000 	    8.8410 
    0.6790 	   24.9400 	    2.0000 	   37.0000 	    8.8720 
    0.2976 	   25.0080 	    2.0000 	   37.0000 	    8.9060 
    0.6638 	   25.0720 	    2.0000 	   37.0000 	    8.9380 
    0.7553 	   25.1420 	    2.0000 	   37.0000 	    8.9730 
    0.6638 	   25.2040 	    2.0000 	   37.0000 	    9.0040 
    0.7553 	   25.2700 	    2.0000 	   37.0000 	    9.0370 
    0.6027 	   25.3320 	    2.0000 	   37.0000 	    9.0680 
    0.6943 	   25.3980 	    2.0000 	   37.0000 	    9.1010 
    0.6790 	   25.4640 	    2.0000 	   37.0000 	    9.1340 
    0.7401 	   25.5260 	    2.0000 	   37.0000 	    9.1650 
    0.5875 	   25.5860 	    2.0000 	   37.0000 	    9.1950 
    0.6943 	   25.6580 	    2.0000 	   37.0000 	    9.2310 
    0.6180 	   25.7220 	    2.0000 	   37.0000 	    9.2630 
    0.8774 	   25.7860 	    2.0000 	   37.0000 	    9.2950 
    0.7706 	   25.8540 	    2.0000 	   37.0000 	    9.3290 
    0.7553 	   25.9180 	    2.0000 	   37.0000 	    9.3610 
    0.6485 	   25.9820 	    2.0000 	   37.0000 	    9.3930 
    0.8316 	   26.0460 	    2.0000 	   37.0000 	    9.4250 
    0.5875 	   26.1100 	    2.0000 	   37.0000 	    9.4570 
    0.7401 	   26.1820 	    2.0000 	   37.0000 	    9.4930 
    0.7706 	   26.2480 	    2.0000 	   37.0000 	    9.5260 
    0.6790 	   26.3120 	    2.0000 	   37.0000 	    9.5580 
    0.5570 	   26.3760 	    2.0000 	   37.0000 	    9.5900 
    0.6180 	   26.4400 	    2.0000 	   37.0000 	    9.6220 
    0.9384 	   26.5120 	    2.0000 	   37.0000 	    9.6580 
    0.6027 	   26.5760 	    2.0000 	   37.0000 	    9.6900 
    0.8011 	   26.7060 	    2.0000 	   37.0000 	    9.7550 
    0.6943 	   26.7700 	    2.0000 	   37.0000 	    9.7870 
    0.5875 	   26.8380 	    2.0000 	   37.0000 	    9.8210 
    0.6027 	   26.9020 	    2.0000 	   37.0000 	    9.8530 
    0.6180 	   26.9640 	    2.0000 	   37.0000 	    9.8840 
    0.8316 	   27.0240 	    2.0000 	   37.0000 	    9.9140 
    0.7858 	   27.0880 	    2.0000 	   37.0000 	    9.9460 
    0.7553 	   27.1620 	    2.0000 	   37.0000 	    9.9830 
    0.6790 	   27.2240 	    2.0000 	   37.0000 	   10.0140 
    0.6943 	   27.2840 	    2.0000 	   37.0000 	   10.0440 
    0.7706 	   27.3480 	    2.0000 	   37.0000 	   10.0760 
    0.5570 	   27.4140 	    2.0000 	   37.0000 	   10.1091 
    0.6943 	   27.4780 	    2.0000 	   37.0000 	   10.1411 
    0.8469 	   27.5420 	    2.0000 	   37.0000 	   10.1731 
    0.6790 	   27.6060 	    2.0000 	   37.0000 	   10.2051 
    0.6790 	   27.6760 	    2.0000 	   37.0000 	   10.2401 
    0.7095 	   27.7360 	    2.0000 	   37.0000 	   10.2701 
    0.6790 	   27.8040 	    2.0000 	   37.0000 	   10.3041 
    0.7401 	   27.8660 	    2.0000 	   37.0000 	   10.3351 
    0.8011 	   27.9300 	    2.0000 	   37.0000 	   10.3671 
    0.7858 	   27.9940 	    2.0000 	   37.0000 	   10.3991 
    0.7401 	   28.0620 	    2.0000 	   37.0000 	   10.4331 
    0.6638 	   28.1280 	    2.0000 	   37.0000 	   10.4661 
    0.8621 	   28.2020 	    2.0000 	   37.0000 	   10.5031 
    0.6638 	   28.2680 	    2.0000 	   37.0000 	   10.5361 
    0.7553 	   28.3340 	    2.0000 	   37.0000 	   10.5691 
    0.6943 	   28.4000 	    2.0000 	   37.0000 	   10.6021 
    0.8316 	   28.4620 	    2.0000 	   37.0000 	   10.6331 
    0.8469 	   28.5280 	    2.0000 	   37.0000 	   10.6661 
    0.6638 	   28.5920 	    2.0000 	   37.0000 	   10.6981 
    0.7095 	   28.6660 	    2.0000 	   37.0000 	   10.7351 
    0.6485 	   28.7340 	    2.0000 	   37.0000 	   10.7691 
    0.7706 	   28.8020 	    2.0000 	   37.0000 	   10.8031 
    0.6027 	   28.8700 	    2.0000 	   37.0000 	   10.8371 
    0.8164 	   28.9380 	    2.0000 	   37.0000 	   10.8711 
    0.7706 	   29.0020 	    2.0000 	   37.0000 	   10.9031 
    0.8621 	   29.0680 	    2.0000 	   37.0000 	   10.9361 
    0.7401 	   29.1380 	    2.0000 	   37.0000 	   10.9711 
    0.7706 	   29.2060 	    2.0000 	   37.0000 	   11.0051 
    0.7248 	   29.2720 	    2.0000 	   37.0000 	   11.0381 
    0.8316 	   29.3420 	    2.0000 	   37.0000 	   11.0731 
    0.7095 	   29.4060 	    2.0000 	   37.0000 	   11.1051 
    0.8316 	   29.4720 	    2.0000 	   37.0000 	   11.1381 
    0.7706 	   29.5400 	    2.0000 	   37.0000 	   11.1721 
    0.8621 	   29.6000 	    2.0000 	   37.0000 	   11.2021 
    0.7553 	   29.6700 	    2.0000 	   37.0000 	   11.2371 
    0.7095 	   29.7380 	    2.0000 	   37.0000 	   11.2711 
    0.6790 	   29.8040 	    2.0000 	   37.0000 	   11.3041 
    0.7095 	   29.8740 	    2.0000 	   37.0000 	   11.3391 
    0.6485 	   29.9400 	    2.0000 	   37.0000 	   11.3721 
    0.7095 	   30.0040 	    2.0000 	   37.0000 	   11.4041 
    0.6180 	   30.0720 	    2.0000 	   37.0000 	   11.4381 
    0.9232 	   30.1460 	    2.0000 	   37.0000 	   11.4751 
    0.7401 	   30.2120 	    2.0000 	   37.0000 	   11.5081 
    0.9079 	   30.2780 	    2.0000 	   37.0000 	   11.5411 
    0.6790 	   30.3440 	    2.0000 	   37.0000 	   11.5741 
    0.9995 	   30.4100 	    2.0000 	   37.0000 	   11.6071 
    0.7553 	   30.4720 	    2.0000 	   37.0000 	   11.6381 
    0.6943 	   30.5400 	    2.0000 	   37.0000 	   11.6721 
    0.6180 	   30.6020 	    2.0000 	   37.0000 	   11.7031 
    0.6485 	   30.6740 	    2.0000 	   37.0000 	   11.7391 
    0.8774 	   30.7380 	    2.0000 	   37.0000 	   11.7711 
    0.7401 	   30.8040 	    2.0000 	   37.0000 	   11.8041 
    0.4349 	   30.8700 	    2.0000 	   37.0000 	   11.8372 
    0.7706 	   30.9300 	    2.0000 	   37.0000 	   11.8672 
    0.7706 	   30.9980 	    2.0000 	   37.0000 	   11.9012 
    0.7706 	   31.0640 	    2.0000 	   37.0000 	   11.9342 
    0.6638 	   31.1320 	    2.0000 	   37.0000 	   11.9682 
    0.8774 	   31.2020 	    2.0000 	   37.0000 	   12.0032 
    0.8011 	   31.2700 	    2.0000 	   37.0000 	   12.0372 
    0.8011 	   31.3340 	    2.0000 	   37.0000 	   12.0692 
    0.6332 	   31.4040 	    2.0000 	   37.0000 	   12.1042 
    0.8316 	   31.4700 	    2.0000 	   37.0000 	   12.1372 
    0.7553 	   31.5420 	    2.0000 	   37.0000 	   12.1722 
    0.7553 	   31.6100 	    2.0000 	   37.0000 	   12.2072 
    0.7858 	   31.6820 	    2.0000 	   37.0000 	   12.2432 
    0.7401 	   31.7480 	    2.0000 	   37.0000 	   12.2762 
    0.8164 	   31.8120 	    2.0000 	   37.0000 	   12.3082 
    0.8164 	   31.8820 	    2.0000 	   37.0000 	   12.3432 
    0.8011 	   31.9480 	    2.0000 	   37.0000 	   12.3762 
    0.8621 	   32.0120 	    2.0000 	   37.0000 	   12.4082 
    0.6638 	   32.0780 	    2.0000 	   37.0000 	   12.4412 
    0.9384 	   32.1520 	    2.0000 	   37.0000 	   12.4782 
    0.7401 	   32.2160 	    2.0000 	   37.0000 	   12.5102 
    0.7553 	   32.2800 	    2.0000 	   37.0000 	   12.5422 
    0.8469 	   32.3460 	    2.0000 	   37.0000 	   12.5752 
    0.8774 	   32.4120 	    2.0000 	   37.0000 	   12.6082 
    0.6790 	   32.4800 	    2.0000 	   37.0000 	   12.6422 
    0.8621 	   32.5440 	    2.0000 	   37.0000 	   12.6742 
    0.8469 	   32.6080 	    2.0000 	   37.0000 	   12.7062 
    0.8164 	   32.6840 	    2.0000 	   37.0000 	   12.7442 
    0.8164 	   32.7460 	    2.0000 	   37.0000 	   12.7752 
    0.7248 	   32.8100 	    2.0000 	   37.0000 	   12.8072 
    0.8469 	   32.8720 	    2.0000 	   37.0000 	   12.8382 
    0.8164 	   32.9380 	    2.0000 	   37.0000 	   12.8712 
    0.7706 	   33.0040 	    2.0000 	   37.0000 	   12.9042 
    0.6943 	   33.0660 	    2.0000 	   37.0000 	   12.9352 
    0.7553 	   33.1360 	    2.0000 	   37.0000 	   12.9702 
    0.4349 	   33.2000 	    2.0000 	   37.0000 	   13.0022 
    0.7095 	   33.2680 	    2.0000 	   37.0000 	   13.0362 
    0.7706 	   33.3380 	    2.0000 	   37.0000 	   13.0712 
    0.8316 	   33.4060 	    2.0000 	   37.0000 	   13.1052 
    0.6332 	   33.4740 	    2.0000 	   37.0000 	   13.1392 
    0.8774 	   33.5440 	    2.0000 	   37.0000 	   13.1742 
    0.7706 	   33.6060 	    2.0000 	   37.0000 	   13.2052 
    0.7858 	   33.6760 	    2.0000 	   37.0000 	   13.2402 
    0.7401 	   33.7400 	    2.0000 	   37.0000 	   13.2722 
    0.7858 	   33.8060 	    2.0000 	   37.0000 	   13.3052 
    0.8927 	   33.8700 	    2.0000 	   37.0000 	   13.3372 
    0.7248 	   33.9340 	    2.0000 	   37.0000 	   13.3692 
    0.7401 	   34.0000 	    2.0000 	   37.0000 	   13.4022 
    0.8011 	   34.0660 	    2.0000 	   37.0000 	   13.4352 
    0.8469 	   34.1320 	    2.0000 	   37.0000 	   13.4682 
    0.7095 	   34.2020 	    2.0000 	   37.0000 	   13.5032 
    0.7401 	   34.2680 	    2.0000 	   37.0000 	   13.5362 
    0.7706 	   34.3320 	    2.0000 	   37.0000 	   13.5683 
    0.6790 	   34.4020 	    2.0000 	   37.0000 	   13.6033 
    0.8927 	   34.4640 	    2.0000 	   37.0000 	   13.6343 
    0.7553 	   34.5320 	    2.0000 	   37.0000 	   13.6683 
    0.7858 	   34.5940 	    2.0000 	   37.0000 	   13.6993 
    0.8164 	   34.6600 	    2.0000 	   37.0000 	   13.7323 
    0.7401 	   34.7240 	    2.0000 	   37.0000 	   13.7643 
    0.8164 	   34.7880 	    2.0000 	   37.0000 	   13.7963 
    0.9079 	   34.8600 	    2.0000 	   37.0000 	   13.8323 
    0.8011 	   34.9260 	    2.0000 	   37.0000 	   13.8653 
    0.8774 	   34.9900 	    2.0000 	   37.0000 	   13.8973 
    0.8469 	   35.0580 	    2.0000 	   37.0000 	   13.9313 
    0.8469 	   35.1240 	    2.0000 	   37.0000 	   13.9643 
    0.8011 	   35.1940 	    2.0000 	   37.0000 	   13.9993 
    0.9537 	   35.2600 	    2.0000 	   37.0000 	   14.0323 
    0.7248 	   35.3260 	    2.0000 	   37.0000 	   14.0653 
    0.8316 	   35.3940 	    2.0000 	   37.0000 	   14.0993 
    0.9842 	   35.4640 	    2.0000 	   37.0000 	   14.1343 
    0.9232 	   35.5340 	    2.0000 	   37.0000 	   14.1693 
    0.9232 	   35.6020 	    2.0000 	   37.0000 	   14.2033 
    0.9079 	   35.6660 	    2.0000 	   37.0000 	   14.2353 
    0.7401 	   35.7340 	    2.0000 	   37.0000 	   14.2693 
    0.8774 	   35.8040 	    2.0000 	   37.0000 	   14.3043 
    0.8927 	   35.8700 	    2.0000 	   37.0000 	   14.3373 
    0.8621 	   35.9360 	    2.0000 	   37.0000 	   14.3703 
    0.6943 	   36.0020 	    2.0000 	   37.0000 	   14.4033 
    0.9232 	   36.0680 	    2.0000 	   37.0000 	   14.4363 
    0.8621 	   36.1400 	    2.0000 	   37.0000 	   14.4723 
    0.8621 	   36.2100 	    2.0000 	   37.0000 	   14.5073 
    0.9842 	   36.2780 	    2.0000 	   37.0000 	   14.5413 
    0.8927 	   36.3440 	    2.0000 	   37.0000 	   14.5743 
    0.7095 	   36.4100 	    2.0000 	   37.0000 	   14.6073 
    0.7553 	   36.4840 	    2.0000 	   37.0000 	   14.6443 
    0.8927 	   36.5460 	    2.0000 	   37.0000 	   14.6753 
    0.7553 	   36.6080 	    2.0000 	   37.0000 	   14.7063 
    0.8927 	   36.6740 	    2.0000 	   37.0000 	   14.7393 
    0.7401 	   36.7420 	    2.0000 	   37.0000 	   14.7733 
    0.9079 	   36.8100 	    2.0000 	   37.0000 	   14.8073 
    0.9232 	   36.8740 	    2.0000 	   37.0000 	   14.8393 
    0.9537 	   36.9440 	    2.0000 	   37.0000 	   14.8743 
    0.8469 	   37.0120 	    2.0000 	   37.0000 	   14.9083 
    0.9232 	   37.0800 	    2.0000 	   37.0000 	   14.9423 
    0.9384 	   37.1480 	    2.0000 	   37.0000 	   14.9763 
    0.9384 	   37.2160 	    2.0000 	   37.0000 	   15.0103 
    0.8927 	   37.2820 	    2.0000 	   37.0000 	   15.0433 
    0.7706 	   37.3460 	    2.0000 	   37.0000 	   15.0753 
    0.7858 	   37.4120 	    2.0000 	   37.0000 	   15.1083 
    0.8316 	   37.4800 	    2.0000 	   37.0000 	   15.1423 
    0.8927 	   37.5480 	    2.0000 	   37.0000 	   15.1763 
    0.7858 	   37.6140 	    2.0000 	   37.0000 	   15.2093 
    0.7401 	   37.6840 	    2.0000 	   37.0000 	   15.2443 
    0.8469 	   37.7500 	    2.0000 	   37.0000 	   15.2773 
    0.7095 	   37.8160 	    2.0000 	   37.0000 	   15.3104 
    0.8164 	   37.8840 	    2.0000 	   37.0000 	   15.3444 
    0.7706 	   37.9540 	    2.0000 	   37.0000 	   15.3794 
    0.7553 	   38.0240 	    2.0000 	   37.0000 	   15.4144 
    0.9842 	   38.0880 	    2.0000 	   37.0000 	   15.4464 
    0.9079 	   38.1600 	    2.0000 	   37.0000 	   15.4824 
    0.8774 	   38.2320 	    2.0000 	   37.0000 	   15.5184 
    0.8316 	   38.2980 	    2.0000 	   37.0000 	   15.5514 
    0.8316 	   38.3660 	    2.0000 	   37.0000 	   15.5854 
    0.7706 	   38.4360 	    2.0000 	   37.0000 	   15.6204 
    0.8469 	   38.5120 	    2.0000 	   37.0000 	   15.6584 
    0.8469 	   38.5820 	    2.0000 	   37.0000 	   15.6934 
    0.8164 	   38.6480 	    2.0000 	   37.0000 	   15.7264 
    0.7401 	   38.7140 	    2.0000 	   37.0000 	   15.7594 
    0.8621 	   38.7800 	    2.0000 	   37.0000 	   15.7924 
    0.6790 	   38.8480 	    2.0000 	   37.0000 	   15.8264 
    0.7858 	   38.9120 	    2.0000 	   37.0000 	   15.8584 
    0.8927 	   38.9780 	    2.0000 	   37.0000 	   15.8914 
    0.8164 	   39.0460 	    2.0000 	   37.0000 	   15.9254 
    0.5112 	   39.1120 	    2.0000 	   37.0000 	   15.9584 
    0.8469 	   39.1880 	    2.0000 	   37.0000 	   15.9964 
    0.9384 	   39.2520 	    2.0000 	   37.0000 	   16.0284 
    0.8316 	   39.3180 	    2.0000 	   37.0000 	   16.0614 
    0.7553 	   39.3860 	    2.0000 	   37.0000 	   16.0954 
    0.9079 	   39.4500 	    2.0000 	   37.0000 	   16.1274 
    0.8316 	   39.5160 	    2.0000 	   37.0000 	   16.1604 
    0.8621 	   39.5840 	    2.0000 	   37.0000 	   16.1944 
    0.9079 	   39.6500 	    2.0000 	   37.0000 	   16.2274 
    0.8469 	   39.7140 	    2.0000 	   37.0000 	   16.2594 
    0.8469 	   39.7820 	    2.0000 	   37.0000 	   16.2934 
    0.9079 	   39.8480 	    2.0000 	   37.0000 	   16.3264 
    0.5570 	   39.9160 	    2.0000 	   37.0000 	   16.3604 
    0.9537 	   39.9780 	    2.0000 	   37.0000 	   16.3914 
    0.8469 	   40.0460 	    2.0000 	   37.0000 	   16.4254 
    0.9232 	   40.1140 	    2.0000 	   37.0000 	   16.4594 
    0.8774 	   40.1860 	    2.0000 	   37.0000 	   16.4954 
    0.8927 	   40.2540 	    2.0000 	   37.0000 	   16.5294 
    0.9995 	   40.3160 	    2.0000 	   37.0000 	   16.5604 
    0.9384 	   40.3740 	    2.0000 	   37.0000 	   16.5894 
    0.7706 	   40.4340 	    2.0000 	   37.0000 	   16.6194 
    0.8621 	   40.4940 	    2.0000 	   37.0000 	   16.6494 
    0.8774 	   40.5500 	    2.0000 	   37.0000 	   16.6774 
    0.8469 	   40.6120 	    2.0000 	   37.0000 	   16.7084 
    0.9232 	   40.6740 	    2.0000 	   37.0000 	   16.7394 
    1.0147 	   40.7320 	    2.0000 	   37.0000 	   16.7684 
    0.9384 	   40.7920 	    2.0000 	   37.0000 	   16.7984 
    0.9384 	   40.8560 	    2.0000 	   37.0000 	   16.8304 
    0.9079 	   40.9140 	    2.0000 	   37.0000 	   16.8594 
    1.0910 	   40.9740 	    2.0000 	   37.0000 	   16.8894 
    0.8774 	   41.0300 	    2.0000 	   37.0000 	   16.9174 
    0.8621 	   41.1000 	    2.0000 	   37.0000 	   16.9524 
    1.0758 	   41.1760 	    2.0000 	   37.0000 	   16.9904 
    0.8164 	   41.2400 	    2.0000 	   37.0000 	   17.0224 
    0.8774 	   41.3140 	    2.0000 	   37.0000 	   17.0584 
    0.9384 	   41.3820 	    2.0000 	   37.0000 	   17.0925 
    0.8621 	   41.4540 	    2.0000 	   37.0000 	   17.1285 
    0.9079 	   41.5200 	    2.0000 	   37.0000 	   17.1615 
    0.9689 	   41.5880 	    2.0000 	   37.0000 	   17.1955 
    0.8011 	   41.6540 	    2.0000 	   37.0000 	   17.2285 
    0.8621 	   41.7180 	    2.0000 	   37.0000 	   17.2605 
    1.1826 	   41.7860 	    2.0000 	   37.0000 	   17.2945 
    0.9232 	   41.8560 	    2.0000 	   37.0000 	   17.3295 
    0.8316 	   41.9300 	    2.0000 	   37.0000 	   17.3665 
    0.6638 	   41.9940 	    2.0000 	   37.0000 	   17.3985 
    0.8927 	   42.0620 	    2.0000 	   37.0000 	   17.4325 
    1.0147 	   42.1320 	    2.0000 	   37.0000 	   17.4675 
    0.8469 	   42.2060 	    2.0000 	   37.0000 	   17.5045 
    0.9689 	   42.2740 	    2.0000 	   37.0000 	   17.5385 
    0.8316 	   42.3400 	    2.0000 	   37.0000 	   17.5715 
    0.7858 	   42.4060 	    2.0000 	   37.0000 	   17.6045 
    0.8469 	   42.4720 	    2.0000 	   37.0000 	   17.6375 
    0.8927 	   42.5400 	    2.0000 	   37.0000 	   17.6715 
    0.9384 	   42.6020 	    2.0000 	   37.0000 	   17.7025 
    1.0300 	   42.6700 	    2.0000 	   37.0000 	   17.7365 
    0.8469 	   42.7380 	    2.0000 	   37.0000 	   17.7705 
    0.9384 	   42.8060 	    2.0000 	   37.0000 	   17.8045 
    1.0758 	   42.8740 	    2.0000 	   37.0000 	   17.8385 
    0.9079 	   42.9400 	    2.0000 	   37.0000 	   17.8715 
    0.9232 	   43.0060 	    2.0000 	   37.0000 	   17.9045 
    0.9384 	   43.0760 	    2.0000 	   37.0000 	   17.9395 
    0.8469 	   43.1500 	    2.0000 	   37.0000 	   17.9765 
    1.1215 	   43.2140 	    2.0000 	   37.0000 	   18.0085 
    0.8316 	   43.2840 	    2.0000 	   37.0000 	   18.0435 
    0.9842 	   43.3520 	    2.0000 	   37.0000 	   18.0775 
    0.9842 	   43.4200 	    2.0000 	   37.0000 	   18.1115 
    0.9995 	   43.4880 	    2.0000 	   37.0000 	   18.1455 
    0.8011 	   43.5580 	    2.0000 	   37.0000 	   18.1805 
    0.9842 	   43.6260 	    2.0000 	   37.0000 	   18.2145 
    0.9689 	   43.6940 	    2.0000 	   37.0000 	   18.2485 
    0.8469 	   43.7580 	    2.0000 	   37.0000 	   18.2805 
    0.9384 	   43.8220 	    2.0000 	   37.0000 	   18.3125 
    0.9842 	   43.8820 	    2.0000 	   37.0000 	   18.3425 
    0.8164 	   43.9420 	    2.0000 	   37.0000 	   18.3725 
    0.9537 	   44.0020 	    2.0000 	   37.0000 	   18.4025 
    1.0758 	   44.0720 	    2.0000 	   37.0000 	   18.4375 
    0.8011 	   44.1440 	    2.0000 	   37.0000 	   18.4735 
    0.9995 	   44.2140 	    2.0000 	   37.0000 	   18.5085 
    0.9842 	   44.2820 	    2.0000 	   37.0000 	   18.5425 
    0.6943 	   44.3480 	    2.0000 	   37.0000 	   18.5755 
    0.9079 	   44.4180 	    2.0000 	   37.0000 	   18.6105 
    0.9232 	   44.4840 	    2.0000 	   37.0000 	   18.6435 
    0.9537 	   44.5520 	    2.0000 	   37.0000 	   18.6775 
    0.8469 	   44.6180 	    2.0000 	   37.0000 	   18.7105 
    0.9537 	   44.6880 	    2.0000 	   37.0000 	   18.7445 
    0.8316 	   44.7580 	    2.0000 	   37.0000 	   18.7805 
    0.9079 	   44.8220 	    2.0000 	   37.0000 	   18.8125 
    1.1215 	   44.8820 	    2.0000 	   37.0000 	   18.8426 
    0.8621 	   44.9420 	    2.0000 	   37.0000 	   18.8726 
    0.9232 	   45.0040 	    2.0000 	   37.0000 	   18.9036 
    0.9384 	   45.0640 	    2.0000 	   37.0000 	   18.9336 
    1.1521 	   45.1300 	    2.0000 	   37.0000 	   18.9666 
    0.7095 	   45.1880 	    2.0000 	   37.0000 	   18.9956 
    0.9384 	   45.2480 	    2.0000 	   37.0000 	   19.0256 
    0.9842 	   45.3100 	    2.0000 	   37.0000 	   19.0566 
    0.6943 	   45.3700 	    2.0000 	   37.0000 	   19.0866 
    0.9537 	   45.4280 	    2.0000 	   37.0000 	   19.1156 
    0.9689 	   45.4920 	    2.0000 	   37.0000 	   19.1476 
    0.9537 	   45.5580 	    2.0000 	   37.0000 	   19.1806 
    1.0147 	   45.6280 	    2.0000 	   37.0000 	   19.2156 
    1.1063 	   45.6900 	    2.0000 	   37.0000 	   19.2466 
    0.9842 	   45.7500 	    2.0000 	   37.0000 	   19.2766 
    0.9537 	   45.8120 	    2.0000 	   37.0000 	   19.3066 
    0.9079 	   45.8700 	    2.0000 	   37.0000 	   19.3366 
    0.9995 	   45.9300 	    2.0000 	   37.0000 	   19.3666 
    0.9842 	   45.9920 	    2.0000 	   37.0000 	   19.3976 
    1.1368 	   46.0580 	    2.0000 	   37.0000 	   19.4306 
    0.9995 	   46.1260 	    2.0000 	   37.0000 	   19.4646 
    0.9384 	   46.2000 	    2.0000 	   37.0000 	   19.5016 
    0.9842 	   46.2680 	    2.0000 	   37.0000 	   19.5356 
    0.9995 	   46.3360 	    2.0000 	   37.0000 	   19.5696 
    0.9079 	   46.4040 	    2.0000 	   37.0000 	   19.6036 
    0.8469 	   46.4680 	    2.0000 	   37.0000 	   19.6356 
    1.0452 	   46.5380 	    2.0000 	   37.0000 	   19.6706 
    0.9689 	   46.6040 	    2.0000 	   37.0000 	   19.7036 
    1.0300 	   46.6740 	    2.0000 	   37.0000 	   19.7386 
    0.9079 	   46.7400 	    2.0000 	   37.0000 	   19.7716 
    0.9995 	   46.8080 	    2.0000 	   37.0000 	   19.8056 
    1.0300 	   46.8760 	    2.0000 	   37.0000 	   19.8396 
    0.9689 	   46.9420 	    2.0000 	   37.0000 	   19.8726 
    1.0300 	   47.0060 	    2.0000 	   37.0000 	   19.9046 
    0.9995 	   47.0660 	    2.0000 	   37.0000 	   19.9346 
    0.5722 	   47.1320 	    2.0000 	   37.0000 	   19.9676 
    1.0605 	   47.1920 	    2.0000 	   37.0000 	   19.9976 
    1.0910 	   47.2540 	    2.0000 	   37.0000 	   20.0286 
    0.8927 	   47.3200 	    2.0000 	   37.0000 	   20.0616 
    0.9079 	   47.3860 	    2.0000 	   37.0000 	   20.0946 
    0.9232 	   47.4520 	    2.0000 	   37.0000 	   20.1276 
    1.1673 	   47.5220 	    2.0000 	   37.0000 	   20.1626 
    1.1368 	   47.5920 	    2.0000 	   37.0000 	   20.1976 
    0.9689 	   47.6600 	    2.0000 	   37.0000 	   20.2316 
    1.1063 	   47.7300 	    2.0000 	   37.0000 	   20.2666 
    1.0605 	   47.7960 	    2.0000 	   37.0000 	   20.2996 
    1.0147 	   47.8660 	    2.0000 	   37.0000 	   20.3346 
    1.1673 	   47.9320 	    2.0000 	   37.0000 	   20.3676 
    0.9995 	   48.0020 	    2.0000 	   37.0000 	   20.4026 
    0.9842 	   48.0700 	    2.0000 	   37.0000 	   20.4366 
    1.0758 	   48.1480 	    2.0000 	   37.0000 	   20.4756 
    0.9384 	   48.2200 	    2.0000 	   37.0000 	   20.5116 
    0.9384 	   48.2880 	    2.0000 	   37.0000 	   20.5457 
    0.8927 	   48.3580 	    2.0000 	   37.0000 	   20.5807 
    1.0758 	   48.4240 	    2.0000 	   37.0000 	   20.6137 
    1.0758 	   48.4940 	    2.0000 	   37.0000 	   20.6487 
    0.8621 	   48.5580 	    2.0000 	   37.0000 	   20.6807 
    0.9384 	   48.6280 	    2.0000 	   37.0000 	   20.7157 
    1.2131 	   48.6940 	    2.0000 	   37.0000 	   20.7487 
    1.0605 	   48.7640 	    2.0000 	   37.0000 	   20.7837 
    0.8927 	   48.8340 	    2.0000 	   37.0000 	   20.8187 
    1.0605 	   48.9000 	    2.0000 	   37.0000 	   20.8517 
    0.9995 	   48.9660 	    2.0000 	   37.0000 	   20.8847 
    1.0452 	   49.0340 	    2.0000 	   37.0000 	   20.9177 
    1.0758 	   49.1020 	    2.0000 	   37.0000 	   20.9527 
    0.9689 	   49.1760 	    2.0000 	   37.0000 	   20.9897 
    1.0910 	   49.2420 	    2.0000 	   37.0000 	   21.0227 
    1.0605 	   49.3080 	    2.0000 	   37.0000 	   21.0557 
    1.0910 	   49.3740 	    2.0000 	   37.0000 	   21.0887 
    1.0605 	   49.4380 	    2.0000 	   37.0000 	   21.1207 
    1.1063 	   49.5080 	    2.0000 	   37.0000 	   21.1557 
    1.0147 	   49.5760 	    2.0000 	   37.0000 	   21.1897 
    0.9537 	   49.6380 	    2.0000 	   37.0000 	   21.2197 
    1.1368 	   49.6980 	    2.0000 	   37.0000 	   21.2507 
    1.1368 	   49.7680 	    2.0000 	   37.0000 	   21.2857 
    1.0147 	   49.8400 	    2.0000 	   37.0000 	   21.3217 
    0.7553 	   49.9140 	    2.0000 	   37.0000 	   21.3587 
    1.1673 	   49.9820 	    2.0000 	   37.0000 	   21.3927 
    1.1368 	   50.0480 	    2.0000 	   37.0000 	   21.4257 
    1.1063 	   50.1180 	    2.0000 	   37.0000 	   21.4607 
    0.9079 	   50.1900 	    2.0000 	   37.0000 	   21.4967 
    0.9995 	   50.2580 	    2.0000 	   37.0000 	   21.5307 
    1.1673 	   50.3280 	    2.0000 	   37.0000 	   21.5657 
    1.1368 	   50.3960 	    2.0000 	   37.0000 	   21.5997 
    0.9537 	   50.4660 	    2.0000 	   37.0000 	   21.6347 
    1.0452 	   50.5340 	    2.0000 	   37.0000 	   21.6687 
    0.9842 	   50.6000 	    2.0000 	   37.0000 	   21.7017 
    1.0300 	   50.6640 	    2.0000 	   37.0000 	   21.7337 
    0.9842 	   50.7320 	    2.0000 	   37.0000 	   21.7677 
    1.0300 	   50.7980 	    2.0000 	   37.0000 	   21.8007 
    1.0147 	   50.8660 	    2.0000 	   37.0000 	   21.8347 
    1.1521 	   50.9340 	    2.0000 	   37.0000 	   21.8687 
    1.0452 	   51.0040 	    2.0000 	   37.0000 	   21.9037 
    0.6790 	   51.0740 	    2.0000 	   37.0000 	   21.9387 
    1.0300 	   51.1480 	    2.0000 	   37.0000 	   21.9757 
    1.1826 	   51.2180 	    2.0000 	   37.0000 	   22.0107 
    1.0147 	   51.2880 	    2.0000 	   37.0000 	   22.0457 
    1.0910 	   51.3540 	    2.0000 	   37.0000 	   22.0787 
    1.0147 	   51.4240 	    2.0000 	   37.0000 	   22.1137 
    1.1673 	   51.4900 	    2.0000 	   37.0000 	   22.1467 
    1.0910 	   51.5580 	    2.0000 	   37.0000 	   22.1807 
    1.0605 	   51.6260 	    2.0000 	   37.0000 	   22.2147 
    1.1368 	   51.6940 	    2.0000 	   37.0000 	   22.2487 
    1.0300 	   51.7640 	    2.0000 	   37.0000 	   22.2837 
    1.0605 	   51.8300 	    2.0000 	   37.0000 	   22.3167 
    1.1368 	   51.8980 	    2.0000 	   37.0000 	   22.3508 
    1.0910 	   51.9580 	    2.0000 	   37.0000 	   22.3808 
    1.0758 	   52.0220 	    2.0000 	   37.0000 	   22.4118 
    1.0910 	   52.0880 	    2.0000 	   37.0000 	   22.4458 
    1.0758 	   52.1660 	    2.0000 	   37.0000 	   22.4848 
    1.1673 	   52.2340 	    2.0000 	   37.0000 	   22.5188 
    1.1063 	   52.3020 	    2.0000 	   37.0000 	   22.5528 
    1.0300 	   52.3700 	    2.0000 	   37.0000 	   22.5868 
    1.1826 	   52.4380 	    2.0000 	   37.0000 	   22.6208 
    1.2741 	   52.5060 	    2.0000 	   37.0000 	   22.6548 
    1.1215 	   52.5760 	    2.0000 	   37.0000 	   22.6898 
    1.1521 	   52.6440 	    2.0000 	   37.0000 	   22.7238 
    1.1673 	   52.7140 	    2.0000 	   37.0000 	   22.7588 
    0.7553 	   52.7860 	    2.0000 	   37.0000 	   22.7948 
    1.0605 	   52.8520 	    2.0000 	   37.0000 	   22.8278 
    1.1063 	   52.9180 	    2.0000 	   37.0000 	   22.8608 
    1.1215 	   52.9880 	    2.0000 	   37.0000 	   22.8958 
    1.1826 	   53.0560 	    2.0000 	   37.0000 	   22.9298 
    1.1826 	   53.1300 	    2.0000 	   37.0000 	   22.9668 
    1.0605 	   53.2060 	    2.0000 	   37.0000 	   23.0048 
    1.2436 	   53.2760 	    2.0000 	   37.0000 	   23.0398 
    1.2436 	   53.3440 	    2.0000 	   37.0000 	   23.0738 
    1.1826 	   53.4120 	    2.0000 	   37.0000 	   23.1078 
    1.0605 	   53.4820 	    2.0000 	   37.0000 	   23.1428 
    1.1978 	   53.5500 	    2.0000 	   37.0000 	   23.1768 
    1.1215 	   53.6140 	    2.0000 	   37.0000 	   23.2088 
    1.1521 	   53.6740 	    2.0000 	   37.0000 	   23.2388 
    1.0605 	   53.7380 	    2.0000 	   37.0000 	   23.2708 
    1.3199 	   53.8120 	    2.0000 	   37.0000 	   23.3078 
    1.1673 	   53.8780 	    2.0000 	   37.0000 	   23.3408 
    1.1978 	   53.9520 	    2.0000 	   37.0000 	   23.3778 
    1.1673 	   54.0220 	    2.0000 	   37.0000 	   23.4128 
    0.8164 	   54.0920 	    2.0000 	   37.0000 	   23.4478 
    0.9384 	   54.1660 	    2.0000 	   37.0000 	   23.4848 
    1.0452 	   54.2340 	    2.0000 	   37.0000 	   23.5188 
    1.3199 	   54.3040 	    2.0000 	   37.0000 	   23.5538 
    1.1215 	   54.3700 	    2.0000 	   37.0000 	   23.5868 
    1.1063 	   54.4400 	    2.0000 	   37.0000 	   23.6218 
    0.8469 	   54.5140 	    2.0000 	   37.0000 	   23.6588 
    1.1215 	   54.5860 	    2.0000 	   37.0000 	   23.6948 
    1.1978 	   54.6560 	    2.0000 	   37.0000 	   23.7298 
    1.2284 	   54.7260 	    2.0000 	   37.0000 	   23.7648 
    1.1521 	   54.7940 	    2.0000 	   37.0000 	   23.7988 
    1.1063 	   54.8620 	    2.0000 	   37.0000 	   23.8328 
    1.1368 	   54.9300 	    2.0000 	   37.0000 	   23.8668 
    1.0605 	   55.0000 	    2.0000 	   37.0000 	   23.9018 
    1.1673 	   55.0660 	    2.0000 	   37.0000 	   23.9348 
    1.2284 	   55.1480 	    2.0000 	   37.0000 	   23.9758 
    1.1063 	   55.2160 	    2.0000 	   37.0000 	   24.0098 
    1.2131 	   55.2840 	    2.0000 	   37.0000 	   24.0438 
    1.0758 	   55.3520 	    2.0000 	   37.0000 	   24.0779 
    1.2131 	   55.4180 	    2.0000 	   37.0000 	   24.1109 
    1.1521 	   55.4860 	    2.0000 	   37.0000 	   24.1449 
    1.2436 	   55.5600 	    2.0000 	   37.0000 	   24.1819 
    1.1368 	   55.6260 	    2.0000 	   37.0000 	   24.2149 
    1.1673 	   55.7020 	    2.0000 	   37.0000 	   24.2529 
    1.2436 	   55.7700 	    2.0000 	   37.0000 	   24.2869 
    1.1063 	   55.8400 	    2.0000 	   37.0000 	   24.3219 
    1.3199 	   55.9100 	    2.0000 	   37.0000 	   24.3569 
    1.1215 	   55.9780 	    2.0000 	   37.0000 	   24.3909 
    1.0300 	   56.0480 	    2.0000 	   37.0000 	   24.4259 
    1.4420 	   56.1200 	    2.0000 	   37.0000 	   24.4619 
    1.1368 	   56.1960 	    2.0000 	   37.0000 	   24.4999 
    1.0605 	   56.2680 	    2.0000 	   37.0000 	   24.5359 
    1.1826 	   56.3420 	    2.0000 	   37.0000 	   24.5729 
    1.1215 	   56.4140 	    2.0000 	   37.0000 	   24.6089 
    1.0300 	   56.4800 	    2.0000 	   37.0000 	   24.6419 
    1.3657 	   56.5480 	    2.0000 	   37.0000 	   24.6759 
    1.1826 	   56.6120 	    2.0000 	   37.0000 	   24.7079 
    1.1978 	   56.6840 	    2.0000 	   37.0000 	   24.7439 
    1.1826 	   56.7540 	    2.0000 	   37.0000 	   24.7789 
    1.1978 	   56.8280 	    2.0000 	   37.0000 	   24.8159 
    1.3046 	   56.8980 	    2.0000 	   37.0000 	   24.8509 
    1.2131 	   56.9660 	    2.0000 	   37.0000 	   24.8849 
    1.2284 	   57.0400 	    2.0000 	   37.0000 	   24.9219 
    1.2589 	   57.1080 	    2.0000 	   37.0000 	   24.9559 
    1.1826 	   57.1860 	    2.0000 	   37.0000 	   24.9949 
    1.1673 	   57.2560 	    2.0000 	   37.0000 	   25.0299 
    1.1673 	   57.3240 	    2.0000 	   37.0000 	   25.0639 
    0.9384 	   57.3940 	    2.0000 	   37.0000 	   25.0989 
    1.1521 	   57.4660 	    2.0000 	   37.0000 	   25.1349 
    1.1826 	   57.5360 	    2.0000 	   37.0000 	   25.1699 
    1.3352 	   57.6020 	    2.0000 	   37.0000 	   25.2029 
    1.3352 	   57.6700 	    2.0000 	   37.0000 	   25.2369 
    1.2131 	   57.7420 	    2.0000 	   37.0000 	   25.2729 
    1.2589 	   57.8140 	    2.0000 	   37.0000 	   25.3089 
    1.2589 	   57.8860 	    2.0000 	   37.0000 	   25.3449 
    1.1521 	   57.9540 	    2.0000 	   37.0000 	   25.3789 
    1.2589 	   58.0220 	    2.0000 	   37.0000 	   25.4129 
    1.0300 	   58.0940 	    2.0000 	   37.0000 	   25.4489 
    1.3962 	   58.1680 	    2.0000 	   37.0000 	   25.4859 
    1.3352 	   58.2340 	    2.0000 	   37.0000 	   25.5189 
    1.2284 	   58.3040 	    2.0000 	   37.0000 	   25.5539 
    1.3046 	   58.3740 	    2.0000 	   37.0000 	   25.5889 
    1.3504 	   58.4400 	    2.0000 	   37.0000 	   25.6219 
    1.2894 	   58.5140 	    2.0000 	   37.0000 	   25.6589 
    1.3046 	   58.5860 	    2.0000 	   37.0000 	   25.6949 
    1.3657 	   58.6560 	    2.0000 	   37.0000 	   25.7289 
    1.2436 	   58.7260 	    2.0000 	   37.0000 	   25.7649 
    1.2894 	   58.7980 	    2.0000 	   37.0000 	   25.8009 
    1.3504 	   58.8640 	    2.0000 	   37.0000 	   25.8340 
    1.2741 	   58.9220 	    2.0000 	   37.0000 	   25.8630 
    1.1215 	   58.9880 	    2.0000 	   37.0000 	   25.8960 
    1.3199 	   59.0560 	    2.0000 	   37.0000 	   25.9300 
    1.3199 	   59.1260 	    2.0000 	   37.0000 	   25.9650 
    1.2436 	   59.2020 	    2.0000 	   37.0000 	   26.0030 
    1.2131 	   59.2680 	    2.0000 	   37.0000 	   26.0360 
    1.3046 	   59.3400 	    2.0000 	   37.0000 	   26.0720 
    1.2894 	   59.4060 	    2.0000 	   37.0000 	   26.1050 
    1.4878 	   59.4800 	    2.0000 	   37.0000 	   26.1420 
    1.2131 	   59.5520 	    2.0000 	   37.0000 	   26.1780 
    1.1521 	   59.6200 	    2.0000 	   37.0000 	   26.2120 
    1.2131 	   59.6800 	    2.0000 	   37.0000 	   26.2420 
    1.3046 	   59.7420 	    2.0000 	   37.0000 	   26.2730 
    1.1368 	   59.8020 	    2.0000 	   37.0000 	   26.3030 
    0.9537 	   59.8620 	    2.0000 	   37.0000 	   26.3330 
    1.1978 	   59.9260 	    2.0000 	   37.0000 	   26.3650 
    1.3046 	   59.9960 	    2.0000 	   37.0000 	   26.4000 
    1.3352 	   60.0680 	    2.0000 	   37.0000 	   26.4350 
    0.9689 	   60.1380 	    2.0000 	   37.0000 	   26.4710 
    1.1521 	   60.2100 	    2.0000 	   37.0000 	   26.5070 
    1.1521 	   60.2820 	    2.0000 	   37.0000 	   26.5430 
    1.1826 	   60.3440 	    2.0000 	   37.0000 	   26.5740 
    1.1826 	   60.4060 	    2.0000 	   37.0000 	   26.6050 
    1.2284 	   60.4680 	    2.0000 	   37.0000 	   26.6360 
    1.2894 	   60.5280 	    2.0000 	   37.0000 	   26.6660 
    1.1673 	   60.5940 	    2.0000 	   37.0000 	   26.6990 
    1.1673 	   60.6640 	    2.0000 	   37.0000 	   26.7340 
    1.1368 	   60.7340 	    2.0000 	   37.0000 	   26.7690 
    1.0910 	   60.8060 	    2.0000 	   37.0000 	   26.8050 
    1.1673 	   60.8780 	    2.0000 	   37.0000 	   26.8410 
    1.2589 	   60.9500 	    2.0000 	   37.0000 	   26.8770 
    1.1826 	   61.0220 	    2.0000 	   37.0000 	   26.9130 
    1.1368 	   61.0940 	    2.0000 	   37.0000 	   26.9490 
    1.2284 	   61.1680 	    2.0000 	   37.0000 	   26.9860 
    1.0910 	   61.2400 	    2.0000 	   37.0000 	   27.0220 
    1.0910 	   61.3160 	    2.0000 	   37.0000 	   27.0600 
    1.0758 	   61.3860 	    2.0000 	   37.0000 	   27.0950 
    0.9537 	   61.4560 	    2.0000 	   37.0000 	   27.1300 
    1.3504 	   61.5260 	    2.0000 	   37.0000 	   27.1650 
    1.1368 	   61.5920 	    2.0000 	   37.0000 	   27.1980 
    1.1521 	   61.6640 	    2.0000 	   37.0000 	   27.2340 
    1.2894 	   61.7280 	    2.0000 	   37.0000 	   27.2660 
    1.1215 	   61.7900 	    2.0000 	   37.0000 	   27.2970 
    1.0605 	   61.8560 	    2.0000 	   37.0000 	   27.3300 
    1.1521 	   61.9260 	    2.0000 	   37.0000 	   27.3650 
    1.0452 	   62.0000 	    2.0000 	   37.0000 	   27.4020 
    0.8621 	   62.0680 	    2.0000 	   37.0000 	   27.4360 
    1.1368 	   62.1520 	    2.0000 	   37.0000 	   27.4780 
    1.0300 	   62.2220 	    2.0000 	   37.0000 	   27.5130 
    1.1215 	   62.2900 	    2.0000 	   37.0000 	   27.5471 
    1.1826 	   62.3620 	    2.0000 	   37.0000 	   27.5831 
    1.0758 	   62.4340 	    2.0000 	   37.0000 	   27.6191 
    1.2284 	   62.5120 	    2.0000 	   37.0000 	   27.6581 
    1.0452 	   62.5820 	    2.0000 	   37.0000 	   27.6931 
    1.0758 	   62.6600 	    2.0000 	   37.0000 	   27.7321 
    1.0605 	   62.7320 	    2.0000 	   37.0000 	   27.7681 
    1.0452 	   62.8020 	    2.0000 	   37.0000 	   27.8031 
    1.1215 	   62.8700 	    2.0000 	   37.0000 	   27.8371 
    1.0758 	   62.9420 	    2.0000 	   37.0000 	   27.8731 
    0.8927 	   63.0120 	    2.0000 	   37.0000 	   27.9081 
    1.1063 	   63.0840 	    2.0000 	   37.0000 	   27.9441 
    1.1063 	   63.1540 	    2.0000 	   37.0000 	   27.9791 
    0.9079 	   63.2260 	    2.0000 	   37.0000 	   28.0151 
    0.8927 	   63.2900 	    2.0000 	   37.0000 	   28.0471 
    0.9842 	   63.3520 	    2.0000 	   37.0000 	   28.0781 
    0.9384 	   63.4140 	    2.0000 	   37.0000 	   28.1091 
    1.1673 	   63.4740 	    2.0000 	   37.0000 	   28.1391 
    1.1826 	   63.5420 	    2.0000 	   37.0000 	   28.1731 
    0.9842 	   63.6120 	    2.0000 	   37.0000 	   28.2081 
    1.1368 	   63.6840 	    2.0000 	   37.0000 	   28.2441 
    1.1673 	   63.7520 	    2.0000 	   37.0000 	   28.2781 
    1.0758 	   63.8180 	    2.0000 	   37.0000 	   28.3111 
    0.8469 	   63.8860 	    2.0000 	   37.0000 	   28.3451 
    1.0300 	   63.9560 	    2.0000 	   37.0000 	   28.3801 
    1.1673 	   64.0260 	    2.0000 	   37.0000 	   28.4151 
    0.9537 	   64.0940 	    2.0000 	   37.0000 	   28.4491 
    1.1673 	   64.1720 	    2.0000 	   37.0000 	   28.4881 
    1.0300 	   64.2400 	    2.0000 	   37.0000 	   28.5221 
    0.9995 	   64.3080 	    2.0000 	   37.0000 	   28.5561 
    0.7401 	   64.3800 	    2.0000 	   37.0000 	   28.5921 
    0.8469 	   64.4500 	    2.0000 	   37.0000 	   28.6271 
    0.9232 	   64.5240 	    2.0000 	   37.0000 	   28.6641 
    1.1215 	   64.5980 	    2.0000 	   37.0000 	   28.7011 
    0.9995 	   64.6700 	    2.0000 	   37.0000 	   28.7371 
    0.9689 	   64.7380 	    2.0000 	   37.0000 	   28.7711 
    0.9384 	   64.8120 	    2.0000 	   37.0000 	   28.8081 
    0.9384 	   64.8860 	    2.0000 	   37.0000 	   28.8441 
    0.9689 	   64.9580 	    2.0000 	   37.0000 	   28.8811 
    1.0300 	   65.0300 	    2.0000 	   37.0000 	   28.9171 
    1.0147 	   65.1020 	    2.0000 	   37.0000 	   28.9531 
    1.0147 	   65.1720 	    2.0000 	   37.0000 	   28.9881 
    1.0605 	   65.2440 	    2.0000 	   37.0000 	   29.0241 
    1.0758 	   65.3140 	    2.0000 	   37.0000 	   29.0591 
    0.6943 	   65.3860 	    2.0000 	   37.0000 	   29.0951 
    1.0910 	   65.4580 	    2.0000 	   37.0000 	   29.1311 
    1.0300 	   65.5320 	    2.0000 	   37.0000 	   29.1681 
    1.0452 	   65.6020 	    2.0000 	   37.0000 	   29.2031 
    1.1978 	   65.6740 	    2.0000 	   37.0000 	   29.2391 
    0.9384 	   65.7400 	    2.0000 	   37.0000 	   29.2721 
    0.7095 	   65.8120 	    2.0000 	   37.0000 	   29.3082 
    1.1215 	   65.8840 	    2.0000 	   37.0000 	   29.3442 
    0.8621 	   65.9560 	    2.0000 	   37.0000 	   29.3802 
    1.0910 	   66.0280 	    2.0000 	   37.0000 	   29.4162 
    1.0605 	   66.0960 	    2.0000 	   37.0000 	   29.4502 
    0.8621 	   66.1740 	    2.0000 	   37.0000 	   29.4892 
    0.9537 	   66.2420 	    2.0000 	   37.0000 	   29.5232 
    0.9689 	   66.3140 	    2.0000 	   37.0000 	   29.5592 
    0.9384 	   66.3860 	    2.0000 	   37.0000 	   29.5952 
    0.8927 	   66.4560 	    2.0000 	   37.0000 	   29.6302 
    1.1063 	   66.5300 	    2.0000 	   37.0000 	   29.6672 
    0.9537 	   66.5980 	    2.0000 	   37.0000 	   29.7002 
    0.8927 	   66.6680 	    2.0000 	   37.0000 	   29.7362 
    0.8774 	   66.7380 	    2.0000 	   37.0000 	   29.7712 
    0.6638 	   66.8100 	    2.0000 	   37.0000 	   29.8072 
    0.7095 	   66.8800 	    2.0000 	   37.0000 	   29.8422 
    1.0910 	   66.9520 	    2.0000 	   37.0000 	   29.8782 
    0.9232 	   67.0200 	    2.0000 	   37.0000 	   29.9122 
    0.8927 	   67.0940 	    2.0000 	   37.0000 	   29.9492 
    0.8316 	   67.1680 	    2.0000 	   37.0000 	   29.9862 
    0.8774 	   67.2380 	    2.0000 	   37.0000 	   30.0212 
    1.0300 	   67.3080 	    2.0000 	   37.0000 	   30.0562 
    0.9842 	   67.3800 	    2.0000 	   37.0000 	   30.0922 
    1.0452 	   67.4500 	    2.0000 	   37.0000 	   30.1272 
    1.1063 	   67.5220 	    2.0000 	   37.0000 	   30.1632 
    0.9842 	   67.5940 	    2.0000 	   37.0000 	   30.1992 
    0.8774 	   67.6700 	    2.0000 	   37.0000 	   30.2372 
    0.5722 	   67.7400 	    2.0000 	   37.0000 	   30.2722 
    0.9537 	   67.8120 	    2.0000 	   37.0000 	   30.3082 
    0.8774 	   67.8860 	    2.0000 	   37.0000 	   30.3452 
    0.9537 	   67.9560 	    2.0000 	   37.0000 	   30.3802 
    0.9995 	   68.0280 	    2.0000 	   37.0000 	   30.4162 
    0.9995 	   68.1040 	    2.0000 	   37.0000 	   30.4542 
    0.9842 	   68.1820 	    2.0000 	   37.0000 	   30.4932 
    0.9232 	   68.2540 	    2.0000 	   37.0000 	   30.5292 
    0.6943 	   68.3240 	    2.0000 	   37.0000 	   30.5642 
    0.9232 	   68.3940 	    2.0000 	   37.0000 	   30.5992 
    0.7858 	   68.4680 	    2.0000 	   37.0000 	   30.6362 
    0.8927 	   68.5360 	    2.0000 	   37.0000 	   30.6702 
    0.9079 	   68.6080 	    2.0000 	   37.0000 	   30.7062 
    0.7401 	   68.6820 	    2.0000 	   37.0000 	   30.7432 
    0.7553 	   68.7560 	    2.0000 	   37.0000 	   30.7802 
    0.9079 	   68.8280 	    2.0000 	   37.0000 	   30.8162 
    1.0300 	   68.9040 	    2.0000 	   37.0000 	   30.8542 
    0.9842 	   68.9760 	    2.0000 	   37.0000 	   30.8902 
    0.7248 	   69.0460 	    2.0000 	   37.0000 	   30.9252 
    0.8621 	   69.1140 	    2.0000 	   37.0000 	   30.9592 
    0.9995 	   69.1780 	    2.0000 	   37.0000 	   30.9912 
    0.9232 	   69.2480 	    2.0000 	   37.0000 	   31.0262 
    0.8621 	   69.3140 	    2.0000 	   37.0000 	   31.0592 
    0.8316 	   69.3780 	    2.0000 	   37.0000 	   31.0913 
    0.8621 	   69.4420 	    2.0000 	   37.0000 	   31.1233 
    0.8927 	   69.5060 	    2.0000 	   37.0000 	   31.1543 
    0.9079 	   69.5680 	    2.0000 	   37.0000 	   31.1863 
    0.6638 	   69.6340 	    2.0000 	   37.0000 	   31.2193 
    0.8164 	   69.7000 	    2.0000 	   37.0000 	   31.2523 
    0.7706 	   69.7660 	    2.0000 	   37.0000 	   31.2853 
    0.8164 	   69.8340 	    2.0000 	   37.0000 	   31.3193 
    0.9689 	   69.9100 	    2.0000 	   37.0000 	   31.3573 
    0.7401 	   69.9800 	    2.0000 	   37.0000 	   31.3923 
    0.8316 	   70.0560 	    2.0000 	   37.0000 	   31.4303 
    0.7706 	   70.1260 	    2.0000 	   37.0000 	   31.4653 
    0.6027 	   70.2020 	    2.0000 	   37.0000 	   31.5033 
    0.9537 	   70.2700 	    2.0000 	   37.0000 	   31.5373 
    0.7553 	   70.3340 	    2.0000 	   37.0000 	   31.5693 
    0.8164 	   70.3980 	    2.0000 	   37.0000 	   31.6013 
    0.8774 	   70.4620 	    2.0000 	   37.0000 	   31.6333 
    0.9384 	   70.5260 	    2.0000 	   37.0000 	   31.6653 
    0.7401 	   70.5900 	    2.0000 	   37.0000 	   31.6973 
    0.8621 	   70.6540 	    2.0000 	   37.0000 	   31.7293 
    0.9537 	   70.7160 	    2.0000 	   37.0000 	   31.7603 
    0.8316 	   70.7780 	    2.0000 	   37.0000 	   31.7913 
    0.5417 	   70.8420 	    2.0000 	   37.0000 	   31.8233 
    0.8927 	   70.9140 	    2.0000 	   37.0000 	   31.8593 
    0.5112 	   70.9900 	    2.0000 	   37.0000 	   31.8973 
    0.8774 	   71.0640 	    2.0000 	   37.0000 	   31.9343 
    0.8011 	   71.1360 	    2.0000 	   37.0000 	   31.9703 
    0.8316 	   71.2100 	    2.0000 	   37.0000 	   32.0073 
    0.5875 	   71.2860 	    2.0000 	   37.0000 	   32.0453 
    0.8774 	   71.3540 	    2.0000 	   37.0000 	   32.0793 
    0.7858 	   71.4240 	    2.0000 	   37.0000 	   32.1143 
    0.8774 	   71.4960 	    2.0000 	   37.0000 	   32.1503 
    0.8774 	   71.5680 	    2.0000 	   37.0000 	   32.1863 
    0.8621 	   71.6400 	    2.0000 	   37.0000 	   32.2223 
    0.7401 	   71.7120 	    2.0000 	   37.0000 	   32.2583 
    0.9232 	   71.7820 	    2.0000 	   37.0000 	   32.2933 
    0.4807 	   71.8560 	    2.0000 	   37.0000 	   32.3303 
    0.8164 	   71.9280 	    2.0000 	   37.0000 	   32.3663 
    0.7706 	   72.0020 	    2.0000 	   37.0000 	   32.4023 
    0.8927 	   72.0740 	    2.0000 	   37.0000 	   32.4393 
    0.8316 	   72.1480 	    2.0000 	   37.0000 	   32.4763 
    0.6943 	   72.2160 	    2.0000 	   37.0000 	   32.5103 
    0.7858 	   72.2880 	    2.0000 	   37.0000 	   32.5463 
    0.6638 	   72.3620 	    2.0000 	   37.0000 	   32.5833 
    0.7858 	   72.4340 	    2.0000 	   37.0000 	   32.6193 
    0.8469 	   72.5060 	    2.0000 	   37.0000 	   32.6553 
    0.8164 	   72.5820 	    2.0000 	   37.0000 	   32.6933 
    0.7553 	   72.6620 	    2.0000 	   37.0000 	   32.7333 
    0.7706 	   72.7360 	    2.0000 	   37.0000 	   32.7703 
    0.7401 	   72.8080 	    2.0000 	   37.0000 	   32.8064 
    0.8164 	   72.8800 	    2.0000 	   37.0000 	   32.8424 
    0.8011 	   72.9500 	    2.0000 	   37.0000 	   32.8774 
    0.9384 	   73.0200 	    2.0000 	   37.0000 	   32.9124 
    0.9232 	   73.0960 	    2.0000 	   37.0000 	   32.9504 
    0.9537 	   73.1740 	    2.0000 	   37.0000 	   32.9894 
    0.8316 	   73.2440 	    2.0000 	   37.0000 	   33.0244 
    0.7248 	   73.3180 	    2.0000 	   37.0000 	   33.0614 
    0.7706 	   73.3900 	    2.0000 	   37.0000 	   33.0974 
    0.6790 	   73.4600 	    2.0000 	   37.0000 	   33.1324 
    0.7248 	   73.5340 	    2.0000 	   37.0000 	   33.1694 
    0.8774 	   73.6040 	    2.0000 	   37.0000 	   33.2044 
    0.6943 	   73.6800 	    2.0000 	   37.0000 	   33.2424 
    0.7248 	   73.7560 	    2.0000 	   37.0000 	   33.2804 
    0.8469 	   73.8280 	    2.0000 	   37.0000 	   33.3164 
    0.7706 	   73.9000 	    2.0000 	   37.0000 	   33.3524 
    0.9079 	   73.9800 	    2.0000 	   37.0000 	   33.3924 
    0.8164 	   74.0520 	    2.0000 	   37.0000 	   33.4284 
    0.7553 	   74.1260 	    2.0000 	   37.0000 	   33.4654 
    0.8774 	   74.2060 	    2.0000 	   37.0000 	   33.5054 
    0.6638 	   74.2780 	    2.0000 	   37.0000 	   33.5414 
    0.8011 	   74.3500 	    2.0000 	   37.0000 	   33.5774 
    0.6332 	   74.4260 	    2.0000 	   37.0000 	   33.6154 
    0.8621 	   74.5100 	    2.0000 	   37.0000 	   33.6574 
    0.7858 	   74.5860 	    2.0000 	   37.0000 	   33.6954 
    0.5112 	   74.6600 	    2.0000 	   37.0000 	   33.7324 
    0.8316 	   74.7320 	    2.0000 	   37.0000 	   33.7684 
    0.6638 	   74.8040 	    2.0000 	   37.0000 	   33.8044 
    0.7858 	   74.8740 	    2.0000 	   37.0000 	   33.8394 
    0.8621 	   74.9400 	    2.0000 	   37.0000 	   33.8724 
    0.8164 	   75.0040 	    2.0000 	   37.0000 	   33.9044 
    0.6638 	   75.0720 	    2.0000 	   37.0000 	   33.9384 
    0.7553 	   75.1440 	    2.0000 	   37.0000 	   33.9744 
    0.8621 	   75.2180 	    2.0000 	   37.0000 	   34.0114 
    0.7858 	   75.2920 	    2.0000 	   37.0000 	   34.0484 
    0.8621 	   75.3660 	    2.0000 	   37.0000 	   34.0854 
    0.6790 	   75.4400 	    2.0000 	   37.0000 	   34.1224 
    0.9232 	   75.5080 	    2.0000 	   37.0000 	   34.1564 
    0.4501 	   75.5800 	    2.0000 	   37.0000 	   34.1924 
    0.6332 	   75.6560 	    2.0000 	   37.0000 	   34.2304 
    0.8621 	   75.7280 	    2.0000 	   37.0000 	   34.2664 
    0.8011 	   75.8040 	    2.0000 	   37.0000 	   34.3044 
    0.8774 	   75.8780 	    2.0000 	   37.0000 	   34.3404 
    0.6180 	   75.9500 	    2.0000 	   37.0000 	   34.3774 
    0.7706 	   76.0240 	    2.0000 	   37.0000 	   34.4144 
    0.8927 	   76.0940 	    2.0000 	   37.0000 	   34.4494 
    0.8011 	   76.1780 	    2.0000 	   37.0000 	   34.4914 
    0.7248 	   76.2520 	    2.0000 	   37.0000 	   34.5275 
    0.6027 	   76.3320 	    2.0000 	   37.0000 	   34.5675 
    0.8011 	   76.4000 	    2.0000 	   37.0000 	   34.6015 
    0.6485 	   76.4760 	    2.0000 	   37.0000 	   34.6395 
    0.6790 	   76.5440 	    2.0000 	   37.0000 	   34.6735 
    0.6790 	   76.6160 	    2.0000 	   37.0000 	   34.7085 
    0.6943 	   76.6940 	    2.0000 	   37.0000 	   34.7485 
    0.7553 	   76.7640 	    2.0000 	   37.0000 	   34.7835 
    0.7401 	   76.8400 	    2.0000 	   37.0000 	   34.8215 
    0.7401 	   76.9140 	    2.0000 	   37.0000 	   34.8585 
    0.5722 	   76.9880 	    2.0000 	   37.0000 	   34.8955 
    0.8469 	   77.0600 	    2.0000 	   37.0000 	   34.9315 
    0.6943 	   77.1320 	    2.0000 	   37.0000 	   34.9675 
    0.6790 	   77.2060 	    2.0000 	   37.0000 	   35.0045 
    0.8164 	   77.2840 	    2.0000 	   37.0000 	   35.0435 
    0.6638 	   77.3560 	    2.0000 	   37.0000 	   35.0795 
    0.6943 	   77.4260 	    2.0000 	   37.0000 	   35.1145 
    0.7095 	   77.5020 	    2.0000 	   37.0000 	   35.1525 
    0.7553 	   77.5740 	    2.0000 	   37.0000 	   35.1885 
    0.7248 	   77.6460 	    2.0000 	   37.0000 	   35.2245 
    0.7706 	   77.7220 	    2.0000 	   37.0000 	   35.2625 
    0.6485 	   77.7940 	    2.0000 	   37.0000 	   35.2985 
    0.7095 	   77.8680 	    2.0000 	   37.0000 	   35.3355 
    0.5875 	   77.9440 	    2.0000 	   37.0000 	   35.3735 
    0.6485 	   78.0180 	    2.0000 	   37.0000 	   35.4105 
    0.6943 	   78.0920 	    2.0000 	   37.0000 	   35.4475 
    0.7553 	   78.1720 	    2.0000 	   37.0000 	   35.4875 
    0.6027 	   78.2480 	    2.0000 	   37.0000 	   35.5255 
    0.8164 	   78.3180 	    2.0000 	   37.0000 	   35.5605 
    0.4349 	   78.3920 	    2.0000 	   37.0000 	   35.5975 
    0.6943 	   78.4640 	    2.0000 	   37.0000 	   35.6335 
    0.7401 	   78.5380 	    2.0000 	   37.0000 	   35.6705 
    0.6332 	   78.6120 	    2.0000 	   37.0000 	   35.7075 
    0.7553 	   78.6860 	    2.0000 	   37.0000 	   35.7445 
    0.6790 	   78.7600 	    2.0000 	   37.0000 	   35.7815 
    0.7706 	   78.8360 	    2.0000 	   37.0000 	   35.8195 
    0.7401 	   78.9060 	    2.0000 	   37.0000 	   35.8545 
    0.7858 	   78.9820 	    2.0000 	   37.0000 	   35.8925 
    0.7858 	   79.0520 	    2.0000 	   37.0000 	   35.9275 
    0.6332 	   79.1260 	    2.0000 	   37.0000 	   35.9645 
    0.5112 	   79.2000 	    2.0000 	   37.0000 	   36.0015 
    0.7858 	   79.2740 	    2.0000 	   37.0000 	   36.0385 
    0.7401 	   79.3480 	    2.0000 	   37.0000 	   36.0755 
    0.6943 	   79.4200 	    2.0000 	   37.0000 	   36.1115 
    0.7858 	   79.4940 	    2.0000 	   37.0000 	   36.1485 
    0.8774 	   79.5660 	    2.0000 	   37.0000 	   36.1845 
    0.7095 	   79.6400 	    2.0000 	   37.0000 	   36.2215 
    0.7095 	   79.7160 	    2.0000 	   37.0000 	   36.2595 
    0.0992 	   79.7920 	    2.0000 	   37.0000 	   36.2976 
    0.6485 	   79.8620 	    2.0000 	   37.0000 	   36.3326 
    0.6180 	   79.9320 	    2.0000 	   37.0000 	   36.3676 
    0.7401 	   80.0020 	    2.0000 	   37.0000 	   36.4026 
    0.6485 	   80.0720 	    2.0000 	   37.0000 	   36.4376 
    0.5722 	   80.1440 	    2.0000 	   37.0000 	   36.4736 
    0.6485 	   80.2160 	    2.0000 	   37.0000 	   36.5096 
    0.6180 	   80.2840 	    2.0000 	   37.0000 	   36.5436 
    0.5112 	   80.3480 	    2.0000 	   37.0000 	   36.5756 
    0.6332 	   80.4140 	    2.0000 	   37.0000 	   36.6086 
    0.7095 	   80.4800 	    2.0000 	   37.0000 	   36.6416 
    0.5112 	   80.5480 	    2.0000 	   37.0000 	   36.6756 
    0.6485 	   80.6120 	    2.0000 	   37.0000 	   36.7076 
    0.7095 	   80.6760 	    2.0000 	   37.0000 	   36.7396 
    0.7858 	   80.7460 	    2.0000 	   37.0000 	   36.7746 
    0.5875 	   80.8100 	    2.0000 	   37.0000 	   36.8066 
    0.6790 	   80.8740 	    2.0000 	   37.0000 	   36.8386 
    0.6332 	   80.9440 	    2.0000 	   37.0000 	   36.8736 
    0.5875 	   81.0140 	    2.0000 	   37.0000 	   36.9086 
    0.4196 	   81.0860 	    2.0000 	   37.0000 	   36.9446 
    0.7095 	   81.1600 	    2.0000 	   37.0000 	   36.9816 
    0.6027 	   81.2380 	    2.0000 	   37.0000 	   37.0206 
    0.6485 	   81.3120 	    2.0000 	   37.0000 	   37.0576 
    0.6027 	   81.3920 	    2.0000 	   37.0000 	   37.0976 
    0.7553 	   81.4680 	    2.0000 	   37.0000 	   37.1356 
    0.2518 	   81.5480 	    2.0000 	   37.0000 	   37.1756 
    0.5112 	   81.6220 	    2.0000 	   37.0000 	   37.2126 
    0.6180 	   81.6940 	    2.0000 	   37.0000 	   37.2486 
    0.6180 	   81.7640 	    2.0000 	   37.0000 	   37.2836 
    0.5722 	   81.8380 	    2.0000 	   37.0000 	   37.3206 
    0.6638 	   81.9120 	    2.0000 	   37.0000 	   37.3576 
    0.7248 	   81.9880 	    2.0000 	   37.0000 	   37.3956 
    0.6180 	   82.0640 	    2.0000 	   37.0000 	   37.4336 
    0.6485 	   82.1380 	    2.0000 	   37.0000 	   37.4706 
    0.7553 	   82.2240 	    2.0000 	   37.0000 	   37.5136 
    0.6790 	   82.3000 	    2.0000 	   37.0000 	   37.5516 
    0.4959 	   82.3740 	    2.0000 	   37.0000 	   37.5886 
    0.6790 	   82.4540 	    2.0000 	   37.0000 	   37.6286 
    0.5875 	   82.5280 	    2.0000 	   37.0000 	   37.6656 
    0.6943 	   82.6040 	    2.0000 	   37.0000 	   37.7036 
    0.6638 	   82.6760 	    2.0000 	   37.0000 	   37.7396 
    0.6943 	   82.7520 	    2.0000 	   37.0000 	   37.7776 
    0.6638 	   82.8260 	    2.0000 	   37.0000 	   37.8146 
    0.6943 	   82.9020 	    2.0000 	   37.0000 	   37.8526 
    0.7858 	   82.9800 	    2.0000 	   37.0000 	   37.8916 
    0.6027 	   83.0560 	    2.0000 	   37.0000 	   37.9296 
    0.7095 	   83.1320 	    2.0000 	   37.0000 	   37.9676 
    0.6332 	   83.2080 	    2.0000 	   37.0000 	   38.0056 
    0.6180 	   83.2860 	    2.0000 	   37.0000 	   38.0447 
    0.3738 	   83.3580 	    2.0000 	   37.0000 	   38.0807 
    0.6790 	   83.4340 	    2.0000 	   37.0000 	   38.1187 
    0.6943 	   83.5080 	    2.0000 	   37.0000 	   38.1557 
    0.6485 	   83.5840 	    2.0000 	   37.0000 	   38.1937 
    0.6638 	   83.6540 	    2.0000 	   37.0000 	   38.2287 
    0.6790 	   83.7300 	    2.0000 	   37.0000 	   38.2667 
    0.6332 	   83.8060 	    2.0000 	   37.0000 	   38.3047 
    0.3891 	   83.8840 	    2.0000 	   37.0000 	   38.3437 
    0.6332 	   83.9560 	    2.0000 	   37.0000 	   38.3797 
    0.4501 	   84.0300 	    2.0000 	   37.0000 	   38.4167 
    0.7248 	   84.1060 	    2.0000 	   37.0000 	   38.4547 
    0.6332 	   84.1880 	    2.0000 	   37.0000 	   38.4957 
    0.3738 	   84.2620 	    2.0000 	   37.0000 	   38.5327 
    0.6943 	   84.3360 	    2.0000 	   37.0000 	   38.5697 
    0.4807 	   84.4060 	    2.0000 	   37.0000 	   38.6047 
    0.3891 	   84.4780 	    2.0000 	   37.0000 	   38.6407 
    0.4501 	   84.5480 	    2.0000 	   37.0000 	   38.6757 
    0.5570 	   84.6220 	    2.0000 	   37.0000 	   38.7127 
    0.6332 	   84.6960 	    2.0000 	   37.0000 	   38.7497 
    0.8316 	   84.7740 	    2.0000 	   37.0000 	   38.7887 
    0.6180 	   84.8480 	    2.0000 	   37.0000 	   38.8257 
    0.5570 	   84.9240 	    2.0000 	   37.0000 	   38.8637 
    0.6790 	   84.9960 	    2.0000 	   37.0000 	   38.8997 
    0.7401 	   85.0720 	    2.0000 	   37.0000 	   38.9377 
    0.5875 	   85.1460 	    2.0000 	   37.0000 	   38.9747 
    0.6485 	   85.2160 	    2.0000 	   37.0000 	   39.0097 
    0.8011 	   85.2900 	    2.0000 	   37.0000 	   39.0467 
    0.5112 	   85.3620 	    2.0000 	   37.0000 	   39.0827 
    0.6332 	   85.4420 	    2.0000 	   37.0000 	   39.1227 
    0.5722 	   85.5200 	    2.0000 	   37.0000 	   39.1617 
    0.6943 	   85.5920 	    2.0000 	   37.0000 	   39.1977 
    0.6027 	   85.6660 	    2.0000 	   37.0000 	   39.2347 
    0.7858 	   85.7400 	    2.0000 	   37.0000 	   39.2717 
    0.5417 	   85.8180 	    2.0000 	   37.0000 	   39.3107 
    0.7553 	   85.8940 	    2.0000 	   37.0000 	   39.3487 
    0.5264 	   85.9720 	    2.0000 	   37.0000 	   39.3877 
    0.5264 	   86.0460 	    2.0000 	   37.0000 	   39.4247 
    0.5722 	   86.1160 	    2.0000 	   37.0000 	   39.4597 
    0.5417 	   86.1960 	    2.0000 	   37.0000 	   39.4997 
    0.5875 	   86.2660 	    2.0000 	   37.0000 	   39.5347 
    0.6485 	   86.3400 	    2.0000 	   37.0000 	   39.5717 
    0.6790 	   86.4100 	    2.0000 	   37.0000 	   39.6067 
    0.6180 	   86.5140 	    2.0000 	   37.0000 	   39.6587 
    0.3891 	   86.5820 	    2.0000 	   37.0000 	   39.6927 
    0.5875 	   86.6520 	    2.0000 	   37.0000 	   39.7277 
    0.4654 	   86.7260 	    2.0000 	   37.0000 	   39.7647 
    0.4654 	   86.8000 	    2.0000 	   37.0000 	   39.8018 
    0.6332 	   86.8760 	    2.0000 	   37.0000 	   39.8398 
    0.6180 	   86.9540 	    2.0000 	   37.0000 	   39.8788 
    0.7706 	   87.0240 	    2.0000 	   37.0000 	   39.9138 
    0.8011 	   87.0940 	    2.0000 	   37.0000 	   39.9488 
    0.5722 	   87.1640 	    2.0000 	   37.0000 	   39.9838 
    0.6332 	   87.2300 	    2.0000 	   37.0000 	   40.0168 
    0.5112 	   87.2940 	    2.0000 	   37.0000 	   40.0488 
    0.4959 	   87.3600 	    2.0000 	   37.0000 	   40.0818 
    0.6027 	   87.4240 	    2.0000 	   37.0000 	   40.1138 
    0.6180 	   87.4980 	    2.0000 	   37.0000 	   40.1508 
    0.6638 	   87.5740 	    2.0000 	   37.0000 	   40.1888 
    0.5570 	   87.6400 	    2.0000 	   37.0000 	   40.2218 
    0.6790 	   87.7100 	    2.0000 	   37.0000 	   40.2568 
    0.5570 	   87.7760 	    2.0000 	   37.0000 	   40.2898 
    0.6180 	   87.8480 	    2.0000 	   37.0000 	   40.3258 
    0.5570 	   87.9220 	    2.0000 	   37.0000 	   40.3628 
    0.6790 	   87.9960 	    2.0000 	   37.0000 	   40.3998 
    0.6027 	   88.0720 	    2.0000 	   37.0000 	   40.4378 
    0.6180 	   88.1460 	    2.0000 	   37.0000 	   40.4748 
    0.5722 	   88.2280 	    2.0000 	   37.0000 	   40.5158 
    0.6943 	   88.3040 	    2.0000 	   37.0000 	   40.5538 
    0.3281 	   88.3800 	    2.0000 	   37.0000 	   40.5918 
    0.6027 	   88.4580 	    2.0000 	   37.0000 	   40.6308 
    0.6180 	   88.5320 	    2.0000 	   37.0000 	   40.6678 
    0.6180 	   88.6040 	    2.0000 	   37.0000 	   40.7038 
    0.6790 	   88.6820 	    2.0000 	   37.0000 	   40.7428 
    0.6332 	   88.7540 	    2.0000 	   37.0000 	   40.7788 
    0.5875 	   88.8320 	    2.0000 	   37.0000 	   40.8178 
    0.3128 	   88.9060 	    2.0000 	   37.0000 	   40.8548 
    0.5417 	   88.9820 	    2.0000 	   37.0000 	   40.8928 
    0.5112 	   89.0580 	    2.0000 	   37.0000 	   40.9308 
    0.5112 	   89.1320 	    2.0000 	   37.0000 	   40.9678 
    0.5112 	   89.2080 	    2.0000 	   37.0000 	   41.0058 
    0.5570 	   89.2820 	    2.0000 	   37.0000 	   41.0428 
    0.5417 	   89.3560 	    2.0000 	   37.0000 	   41.0798 
    0.6485 	   89.4320 	    2.0000 	   37.0000 	   41.1178 
    0.6332 	   89.5060 	    2.0000 	   37.0000 	   41.1548 
    0.7401 	   89.5780 	    2.0000 	   37.0000 	   41.1908 
    0.5264 	   89.6460 	    2.0000 	   37.0000 	   41.2248 
    0.5722 	   89.7100 	    2.0000 	   37.0000 	   41.2568 
    0.7553 	   89.7780 	    2.0000 	   37.0000 	   41.2908 
    0.6180 	   89.8440 	    2.0000 	   37.0000 	   41.3238 
    0.5417 	   89.9140 	    2.0000 	   37.0000 	   41.3588 
    0.6180 	   89.9860 	    2.0000 	   37.0000 	   41.3948 
    0.6332 	   90.0600 	    2.0000 	   37.0000 	   41.4318 
    0.5417 	   90.1400 	    2.0000 	   37.0000 	   41.4718 
    0.6180 	   90.2220 	    2.0000 	   37.0000 	   41.5128 
    0.5112 	   90.2960 	    2.0000 	   37.0000 	   41.5499 
    0.6485 	   90.3720 	    2.0000 	   37.0000 	   41.5879 
    0.6027 	   90.4480 	    2.0000 	   37.0000 	   41.6259 
    0.6943 	   90.5240 	    2.0000 	   37.0000 	   41.6639 
    0.6180 	   90.6020 	    2.0000 	   37.0000 	   41.7029 
    0.6027 	   90.6780 	    2.0000 	   37.0000 	   41.7409 
    0.7553 	   90.7520 	    2.0000 	   37.0000 	   41.7779 
    0.6332 	   90.8280 	    2.0000 	   37.0000 	   41.8159 
    0.5264 	   90.9060 	    2.0000 	   37.0000 	   41.8549 
    0.6332 	   90.9800 	    2.0000 	   37.0000 	   41.8919 
    0.5570 	   91.0560 	    2.0000 	   37.0000 	   41.9299 
    0.5264 	   91.1280 	    2.0000 	   37.0000 	   41.9659 
    0.5875 	   91.2060 	    2.0000 	   37.0000 	   42.0049 
    0.5570 	   91.2820 	    2.0000 	   37.0000 	   42.0429 
    0.5875 	   91.3620 	    2.0000 	   37.0000 	   42.0829 
    0.5875 	   91.4360 	    2.0000 	   37.0000 	   42.1199 
    0.6027 	   91.5120 	    2.0000 	   37.0000 	   42.1579 
    0.6943 	   91.5920 	    2.0000 	   37.0000 	   42.1979 
    0.6790 	   91.6660 	    2.0000 	   37.0000 	   42.2349 
    0.4959 	   91.7400 	    2.0000 	   37.0000 	   42.2719 
    0.4196 	   91.8140 	    2.0000 	   37.0000 	   42.3089 
    0.5875 	   91.8880 	    2.0000 	   37.0000 	   42.3459 
    0.5570 	   91.9640 	    2.0000 	   37.0000 	   42.3839 
    0.5264 	   92.0420 	    2.0000 	   37.0000 	   42.4229 
    0.4654 	   92.1160 	    2.0000 	   37.0000 	   42.4599 
    0.3738 	   92.2020 	    2.0000 	   37.0000 	   42.5029 
    0.5112 	   92.2780 	    2.0000 	   37.0000 	   42.5409 
    0.6332 	   92.3520 	    2.0000 	   37.0000 	   42.5779 
    0.6790 	   92.4260 	    2.0000 	   37.0000 	   42.6139 
    0.5112 	   92.5000 	    2.0000 	   37.0000 	   42.6519 
    0.3738 	   92.5760 	    2.0000 	   37.0000 	   42.6899 
    0.4959 	   92.6520 	    2.0000 	   37.0000 	   42.7279 
    0.5722 	   92.7300 	    2.0000 	   37.0000 	   42.7669 
    0.6638 	   92.8060 	    2.0000 	   37.0000 	   42.8049 
    0.6638 	   92.8820 	    2.0000 	   37.0000 	   42.8429 
    0.6027 	   92.9580 	    2.0000 	   37.0000 	   42.8809 
    0.4654 	   93.0300 	    2.0000 	   37.0000 	   42.9169 
    0.5722 	   93.1040 	    2.0000 	   37.0000 	   42.9539 
    0.5875 	   93.1800 	    2.0000 	   37.0000 	   42.9919 
    0.6638 	   93.2540 	    2.0000 	   37.0000 	   43.0289 
    0.3586 	   93.3280 	    2.0000 	   37.0000 	   43.0659 
    0.6027 	   93.4060 	    2.0000 	   37.0000 	   43.1049 
    0.4654 	   93.4860 	    2.0000 	   37.0000 	   43.1449 
    0.5722 	   93.5580 	    2.0000 	   37.0000 	   43.1809 
    0.5722 	   93.6340 	    2.0000 	   37.0000 	   43.2189 
    0.6485 	   93.7100 	    2.0000 	   37.0000 	   43.2570 
    0.6027 	   93.7860 	    2.0000 	   37.0000 	   43.2950 
    0.3281 	   93.8620 	    2.0000 	   37.0000 	   43.3330 
    0.5417 	   93.9360 	    2.0000 	   37.0000 	   43.3700 
    0.6638 	   94.0120 	    2.0000 	   37.0000 	   43.4080 
    0.4959 	   94.0920 	    2.0000 	   37.0000 	   43.4480 
    0.4807 	   94.1760 	    2.0000 	   37.0000 	   43.4900 
    0.6485 	   94.2520 	    2.0000 	   37.0000 	   43.5280 
    0.5417 	   94.3280 	    2.0000 	   37.0000 	   43.5660 
    0.4654 	   94.4020 	    2.0000 	   37.0000 	   43.6030 
    0.4044 	   94.4800 	    2.0000 	   37.0000 	   43.6420 
    0.3738 	   94.5560 	    2.0000 	   37.0000 	   43.6800 
    0.5722 	   94.6360 	    2.0000 	   37.0000 	   43.7200 
    0.5417 	   94.7120 	    2.0000 	   37.0000 	   43.7580 
    0.4044 	   94.7880 	    2.0000 	   37.0000 	   43.7960 
    0.5875 	   94.8640 	    2.0000 	   37.0000 	   43.8340 
    0.4349 	   94.9360 	    2.0000 	   37.0000 	   43.8700 
    0.6790 	   95.0140 	    2.0000 	   37.0000 	   43.9090 
    0.5264 	   95.0900 	    2.0000 	   37.0000 	   43.9470 
    0.5264 	   95.1680 	    2.0000 	   37.0000 	   43.9860 
    0.6027 	   95.2400 	    2.0000 	   37.0000 	   44.0220 
    0.7248 	   95.3180 	    2.0000 	   37.0000 	   44.0610 
    0.4654 	   95.3940 	    2.0000 	   37.0000 	   44.0990 
    0.5417 	   95.4760 	    2.0000 	   37.0000 	   44.1400 
    0.5417 	   95.5520 	    2.0000 	   37.0000 	   44.1780 
    0.5112 	   95.6280 	    2.0000 	   37.0000 	   44.2160 
    0.4654 	   95.7020 	    2.0000 	   37.0000 	   44.2530 
    0.2823 	   95.7780 	    2.0000 	   37.0000 	   44.2910 
    0.5264 	   95.8540 	    2.0000 	   37.0000 	   44.3290 
    0.4044 	   95.9280 	    2.0000 	   37.0000 	   44.3660 
    0.7095 	   96.0060 	    2.0000 	   37.0000 	   44.4050 
    0.6485 	   96.0820 	    2.0000 	   37.0000 	   44.4430 
    0.6027 	   96.1660 	    2.0000 	   37.0000 	   44.4850 
    0.1755 	   96.2460 	    2.0000 	   37.0000 	   44.5250 
    0.6180 	   96.3200 	    2.0000 	   37.0000 	   44.5620 
    0.4807 	   96.3960 	    2.0000 	   37.0000 	   44.5990 
    0.5264 	   96.4720 	    2.0000 	   37.0000 	   44.6380 
    0.3281 	   96.5500 	    2.0000 	   37.0000 	   44.6770 
    0.6790 	   96.6240 	    2.0000 	   37.0000 	   44.7140 
    0.5264 	   96.6980 	    2.0000 	   37.0000 	   44.7510 
    0.5722 	   96.7780 	    2.0000 	   37.0000 	   44.7910 
    0.5112 	   96.8540 	    2.0000 	   37.0000 	   44.8290 
    0.4959 	   96.9280 	    2.0000 	   37.0000 	   44.8660 
    0.5112 	   97.0040 	    2.0000 	   37.0000 	   44.9040 
    0.6027 	   97.0800 	    2.0000 	   37.0000 	   44.9420 
    0.5570 	   97.1560 	    2.0000 	   37.0000 	   44.9800 
    0.5112 	   97.2300 	    2.0000 	   37.0000 	   45.0170 
    0.5417 	   97.3020 	    2.0000 	   37.0000 	   45.0531 
    0.6027 	   97.3820 	    2.0000 	   37.0000 	   45.0931 
    0.7401 	   97.4600 	    2.0000 	   37.0000 	   45.1321 
    0.4807 	   97.5360 	    2.0000 	   37.0000 	   45.1701 
    0.4807 	   97.6080 	    2.0000 	   37.0000 	   45.2061 
    0.5112 	   97.6860 	    2.0000 	   37.0000 	   45.2451 
    0.3738 	   97.7620 	    2.0000 	   37.0000 	   45.2831 
    0.5264 	   97.8360 	    2.0000 	   37.0000 	   45.3201 
    0.6180 	   97.9140 	    2.0000 	   37.0000 	   45.3591 
    0.3281 	   97.9900 	    2.0000 	   37.0000 	   45.3971 
    0.5112 	   98.0640 	    2.0000 	   37.0000 	   45.4341 
    0.5570 	   98.1380 	    2.0000 	   37.0000 	   45.4711 
    0.5264 	   98.2220 	    2.0000 	   37.0000 	   45.5131 
    0.4654 	   98.3000 	    2.0000 	   37.0000 	   45.5521 
    0.3891 	   98.3760 	    2.0000 	   37.0000 	   45.5901 
    0.4196 	   98.4540 	    2.0000 	   37.0000 	   45.6291 
    0.4349 	   98.5300 	    2.0000 	   37.0000 	   45.6671 
    0.5417 	   98.6080 	    2.0000 	   37.0000 	   45.7061 
    0.4959 	   98.6820 	    2.0000 	   37.0000 	   45.7431 
    0.4959 	   98.7580 	    2.0000 	   37.0000 	   45.7811 
    0.4196 	   98.8360 	    2.0000 	   37.0000 	   45.8201 
    0.4044 	   98.9100 	    2.0000 	   37.0000 	   45.8571 
    0.4044 	   98.9880 	    2.0000 	   37.0000 	   45.8961 
    0.4349 	   99.0620 	    2.0000 	   37.0000 	   45.9331 
    0.5264 	   99.1400 	    2.0000 	   37.0000 	   45.9721 
    0.2213 	   99.2140 	    2.0000 	   37.0000 	   46.0091 
    0.4959 	   99.2800 	    2.0000 	   37.0000 	   46.0421 
    0.6027 	   99.3560 	    2.0000 	   37.0000 	   46.0801 
    0.4959 	   99.4300 	    2.0000 	   37.0000 	   46.1171 
    0.5264 	   99.4960 	    2.0000 	   37.0000 	   46.1501 
    0.5417 	   99.5700 	    2.0000 	   37.0000 	   46.1871 
    0.1602 	   99.6460 	    2.0000 	   37.0000 	   46.2251 
    0.6638 	   99.7260 	    2.0000 	   37.0000 	   46.2651 
    0.4807 	   99.8040 	    2.0000 	   37.0000 	   46.3041 
    0.5264 	   99.8800 	    2.0000 	   37.0000 	   46.3421 
    0.4807 	   99.9640 	    2.0000 	   37.0000 	   46.3841 
    0.4349 	  100.0400 	    2.0000 	   37.0000 	   46.4221 
    0.4044 	  100.1140 	    2.0000 	   37.0000 	   46.4591 
    0.5264 	  100.1960 	    2.0000 	   37.0000 	   46.5001 
    0.4196 	  100.2740 	    2.0000 	   37.0000 	   46.5391 
    0.5417 	  100.3500 	    2.0000 	   37.0000 	   46.5771 
    0.4654 	  100.4260 	    2.0000 	   37.0000 	   46.6151 
    0.5417 	  100.5020 	    2.0000 	   37.0000 	   46.6531 
    0.4807 	  100.5800 	    2.0000 	   37.0000 	   46.6921 
    0.4501 	  100.6560 	    2.0000 	   37.0000 	   46.7301 
    0.5722 	  100.7340 	    2.0000 	   37.0000 	   46.7691 
    0.4196 	  100.8080 	    2.0000 	   37.0000 	   46.8062 
    0.4349 	  100.8800 	    2.0000 	   37.0000 	   46.8422 
    0.5570 	  100.9460 	    2.0000 	   37.0000 	   46.8752 
    0.4501 	  101.0220 	    2.0000 	   37.0000 	   46.9132 
    0.5722 	  101.0960 	    2.0000 	   37.0000 	   46.9502 
    0.5264 	  101.1700 	    2.0000 	   37.0000 	   46.9872 
    0.4044 	  101.2460 	    2.0000 	   37.0000 	   47.0252 
    0.3281 	  101.3220 	    2.0000 	   37.0000 	   47.0632 
    0.3738 	  101.4000 	    2.0000 	   37.0000 	   47.1022 
    0.4654 	  101.4800 	    2.0000 	   37.0000 	   47.1422 
    0.4654 	  101.5600 	    2.0000 	   37.0000 	   47.1822 
    0.6180 	  101.6380 	    2.0000 	   37.0000 	   47.2212 
    0.4196 	  101.7140 	    2.0000 	   37.0000 	   47.2592 
    0.4807 	  101.7920 	    2.0000 	   37.0000 	   47.2982 
    0.3586 	  101.8700 	    2.0000 	   37.0000 	   47.3372 
    0.3433 	  101.9480 	    2.0000 	   37.0000 	   47.3762 
    0.4501 	  102.0260 	    2.0000 	   37.0000 	   47.4152 
    0.4044 	  102.1040 	    2.0000 	   37.0000 	   47.4542 
    0.4654 	  102.1920 	    2.0000 	   37.0000 	   47.4982 
    0.5264 	  102.2680 	    2.0000 	   37.0000 	   47.5362 
    0.1602 	  102.3480 	    2.0000 	   37.0000 	   47.5762 
    0.3586 	  102.4260 	    2.0000 	   37.0000 	   47.6152 
    0.3586 	  102.5020 	    2.0000 	   37.0000 	   47.6532 
    0.5875 	  102.5760 	    2.0000 	   37.0000 	   47.6902 
    0.4807 	  102.6620 	    2.0000 	   37.0000 	   47.7332 
    0.3891 	  102.7420 	    2.0000 	   37.0000 	   47.7732 
    0.3433 	  102.8180 	    2.0000 	   37.0000 	   47.8112 
    0.4807 	  102.8980 	    2.0000 	   37.0000 	   47.8512 
    0.4044 	  102.9780 	    2.0000 	   37.0000 	   47.8912 
    0.4654 	  103.0560 	    2.0000 	   37.0000 	   47.9302 
    0.4501 	  103.1320 	    2.0000 	   37.0000 	   47.9682 
    0.6180 	  103.2100 	    2.0000 	   37.0000 	   48.0072 
    0.3128 	  103.2820 	    2.0000 	   37.0000 	   48.0432 
    0.4654 	  103.3500 	    2.0000 	   37.0000 	   48.0772 
    0.4654 	  103.4200 	    2.0000 	   37.0000 	   48.1122 
    0.5722 	  103.4900 	    2.0000 	   37.0000 	   48.1472 
    0.3891 	  103.5600 	    2.0000 	   37.0000 	   48.1822 
    0.6180 	  103.6320 	    2.0000 	   37.0000 	   48.2182 
    0.5722 	  103.7000 	    2.0000 	   37.0000 	   48.2522 
    0.4501 	  103.7660 	    2.0000 	   37.0000 	   48.2852 
    0.5722 	  103.8380 	    2.0000 	   37.0000 	   48.3212 
    0.3738 	  103.9120 	    2.0000 	   37.0000 	   48.3582 
    0.4349 	  103.9880 	    2.0000 	   37.0000 	   48.3962 
    0.3738 	  104.0660 	    2.0000 	   37.0000 	   48.4352 
    0.4807 	  104.1460 	    2.0000 	   37.0000 	   48.4752 
    0.5570 	  104.2260 	    2.0000 	   37.0000 	   48.5153 
    0.4807 	  104.3020 	    2.0000 	   37.0000 	   48.5533 
    0.5112 	  104.3800 	    2.0000 	   37.0000 	   48.5923 
    0.4349 	  104.4640 	    2.0000 	   37.0000 	   48.6343 
    0.4349 	  104.5360 	    2.0000 	   37.0000 	   48.6703 
    0.2976 	  104.6120 	    2.0000 	   37.0000 	   48.7083 
    0.5112 	  104.6880 	    2.0000 	   37.0000 	   48.7463 
    0.2670 	  104.7660 	    2.0000 	   37.0000 	   48.7853 
    0.5875 	  104.8440 	    2.0000 	   37.0000 	   48.8243 
    0.5112 	  104.9240 	    2.0000 	   37.0000 	   48.8643 
    0.4196 	  105.0020 	    2.0000 	   37.0000 	   48.9033 
    0.6638 	  105.0800 	    2.0000 	   37.0000 	   48.9423 
    0.4807 	  105.1600 	    2.0000 	   37.0000 	   48.9823 
    0.5112 	  105.2360 	    2.0000 	   37.0000 	   49.0203 
    0.5264 	  105.3140 	    2.0000 	   37.0000 	   49.0593 
    0.4196 	  105.3900 	    2.0000 	   37.0000 	   49.0973 
    0.5264 	  105.4700 	    2.0000 	   37.0000 	   49.1373 
    0.4044 	  105.5500 	    2.0000 	   37.0000 	   49.1773 
    0.4349 	  105.6280 	    2.0000 	   37.0000 	   49.2163 
    0.5264 	  105.7020 	    2.0000 	   37.0000 	   49.2533 
    0.3738 	  105.7780 	    2.0000 	   37.0000 	   49.2913 
    0.4044 	  105.8540 	    2.0000 	   37.0000 	   49.3293 
    0.4807 	  105.9300 	    2.0000 	   37.0000 	   49.3673 
    0.5417 	  106.0080 	    2.0000 	   37.0000 	   49.4063 
    0.2060 	  106.0840 	    2.0000 	   37.0000 	   49.4443 
    0.3738 	  106.1640 	    2.0000 	   37.0000 	   49.4843 
    0.2518 	  106.2400 	    2.0000 	   37.0000 	   49.5223 
    0.3433 	  106.3180 	    2.0000 	   37.0000 	   49.5613 
    0.5112 	  106.3980 	    2.0000 	   37.0000 	   49.6013 
    0.5112 	  106.4780 	    2.0000 	   37.0000 	   49.6413 
    0.6332 	  106.5540 	    2.0000 	   37.0000 	   49.6793 
    0.5417 	  106.6340 	    2.0000 	   37.0000 	   49.7193 
    0.3433 	  106.7120 	    2.0000 	   37.0000 	   49.7583 
    0.3586 	  106.7900 	    2.0000 	   37.0000 	   49.7973 
    0.4044 	  106.8680 	    2.0000 	   37.0000 	   49.8363 
    0.3738 	  106.9440 	    2.0000 	   37.0000 	   49.8743 
    0.4044 	  107.0200 	    2.0000 	   37.0000 	   49.9123 
    0.4349 	  107.1020 	    2.0000 	   37.0000 	   49.9533 
    0.4196 	  107.1820 	    2.0000 	   37.0000 	   49.9933 
    0.3891 	  107.2600 	    2.0000 	   37.0000 	   50.0323 
    0.4349 	  107.3360 	    2.0000 	   37.0000 	   50.0703 
    0.4044 	  107.4140 	    2.0000 	   37.0000 	   50.1093 
    0.3586 	  107.4920 	    2.0000 	   37.0000 	   50.1483 
    0.5264 	  107.5680 	    2.0000 	   37.0000 	   50.1863 
    0.4654 	  107.6440 	    2.0000 	   37.0000 	   50.2243 
    0.4044 	  107.7240 	    2.0000 	   37.0000 	   50.2644 
    0.4654 	  107.8040 	    2.0000 	   37.0000 	   50.3044 
    0.3738 	  107.8820 	    2.0000 	   37.0000 	   50.3434 
    0.2823 	  107.9600 	    2.0000 	   37.0000 	   50.3824 
    0.4501 	  108.0400 	    2.0000 	   37.0000 	   50.4224 
    0.2518 	  108.1200 	    2.0000 	   37.0000 	   50.4624 
    0.4044 	  108.2000 	    2.0000 	   37.0000 	   50.5024 
    0.3738 	  108.2740 	    2.0000 	   37.0000 	   50.5394 
    0.4349 	  108.3500 	    2.0000 	   37.0000 	   50.5774 
    0.2213 	  108.4260 	    2.0000 	   37.0000 	   50.6154 
    0.4349 	  108.5040 	    2.0000 	   37.0000 	   50.6544 
    0.5875 	  108.5800 	    2.0000 	   37.0000 	   50.6924 
    0.3738 	  108.6600 	    2.0000 	   37.0000 	   50.7324 
    0.4196 	  108.7360 	    2.0000 	   37.0000 	   50.7704 
    0.3738 	  108.8160 	    2.0000 	   37.0000 	   50.8104 
    0.3128 	  108.8920 	    2.0000 	   37.0000 	   50.8484 
    0.3738 	  108.9700 	    2.0000 	   37.0000 	   50.8874 
    0.4349 	  109.0500 	    2.0000 	   37.0000 	   50.9274 
    0.4501 	  109.1260 	    2.0000 	   37.0000 	   50.9654 
    0.5570 	  109.2080 	    2.0000 	   37.0000 	   51.0064 
    0.4044 	  109.2860 	    2.0000 	   37.0000 	   51.0454 
    0.4501 	  109.3660 	    2.0000 	   37.0000 	   51.0854 
    0.3433 	  109.4440 	    2.0000 	   37.0000 	   51.1244 
    0.3433 	  109.5180 	    2.0000 	   37.0000 	   51.1614 
    0.4349 	  109.5960 	    2.0000 	   37.0000 	   51.2004 
    0.4501 	  109.6700 	    2.0000 	   37.0000 	   51.2374 
    0.4196 	  109.7440 	    2.0000 	   37.0000 	   51.2744 
    0.5875 	  109.8180 	    2.0000 	   37.0000 	   51.3114 
    0.4349 	  109.8940 	    2.0000 	   37.0000 	   51.3494 
    0.4654 	  109.9720 	    2.0000 	   37.0000 	   51.3884 
    0.2670 	  110.0560 	    2.0000 	   37.0000 	   51.4304 
    0.4807 	  110.1380 	    2.0000 	   37.0000 	   51.4714 
    0.4349 	  110.2220 	    2.0000 	   37.0000 	   51.5134 
    0.4196 	  110.3040 	    2.0000 	   37.0000 	   51.5544 
    0.3586 	  110.3820 	    2.0000 	   37.0000 	   51.5934 
    0.3738 	  110.4660 	    2.0000 	   37.0000 	   51.6354 
    0.4196 	  110.5440 	    2.0000 	   37.0000 	   51.6744 
    0.4349 	  110.6160 	    2.0000 	   37.0000 	   51.7104 
    0.3281 	  110.6920 	    2.0000 	   37.0000 	   51.7484 
    0.3891 	  110.7740 	    2.0000 	   37.0000 	   51.7894 
    0.4959 	  110.8500 	    2.0000 	   37.0000 	   51.8274 
    0.4959 	  110.9260 	    2.0000 	   37.0000 	   51.8654 
    0.3128 	  111.0060 	    2.0000 	   37.0000 	   51.9054 
    0.5417 	  111.0820 	    2.0000 	   37.0000 	   51.9434 
    0.4807 	  111.1600 	    2.0000 	   37.0000 	   51.9824 
    0.4196 	  111.2380 	    2.0000 	   37.0000 	   52.0205 
    0.2823 	  111.3180 	    2.0000 	   37.0000 	   52.0605 
    0.4501 	  111.3960 	    2.0000 	   37.0000 	   52.0995 
    0.4349 	  111.4760 	    2.0000 	   37.0000 	   52.1395 
    0.2823 	  111.5560 	    2.0000 	   37.0000 	   52.1795 
    0.3128 	  111.6320 	    2.0000 	   37.0000 	   52.2175 
    0.3586 	  111.7080 	    2.0000 	   37.0000 	   52.2555 
    0.3891 	  111.7880 	    2.0000 	   37.0000 	   52.2955 
    0.5112 	  111.8680 	    2.0000 	   37.0000 	   52.3355 
    0.3891 	  111.9420 	    2.0000 	   37.0000 	   52.3725 
    0.2823 	  112.0200 	    2.0000 	   37.0000 	   52.4115 
    0.3738 	  112.0960 	    2.0000 	   37.0000 	   52.4495 
    0.3128 	  112.1740 	    2.0000 	   37.0000 	   52.4885 
    0.3891 	  112.2540 	    2.0000 	   37.0000 	   52.5285 
    0.4959 	  112.3340 	    2.0000 	   37.0000 	   52.5685 
    0.5722 	  112.4100 	    2.0000 	   37.0000 	   52.6065 
    0.3891 	  112.4860 	    2.0000 	   37.0000 	   52.6445 
    0.4196 	  112.5640 	    2.0000 	   37.0000 	   52.6835 
    0.3433 	  112.6420 	    2.0000 	   37.0000 	   52.7225 
    0.3891 	  112.7160 	    2.0000 	   37.0000 	   52.7595 
    0.3433 	  112.7860 	    2.0000 	   37.0000 	   52.7945 
    0.3586 	  112.8540 	    2.0000 	   37.0000 	   52.8285 
    0.2823 	  112.9280 	    2.0000 	   37.0000 	   52.8655 
    0.4654 	  113.0020 	    2.0000 	   37.0000 	   52.9025 
    0.4044 	  113.0740 	    2.0000 	   37.0000 	   52.9385 
    0.4807 	  113.1480 	    2.0000 	   37.0000 	   52.9755 
    0.4349 	  113.2260 	    2.0000 	   37.0000 	   53.0145 
    0.4349 	  113.3040 	    2.0000 	   37.0000 	   53.0535 
    0.4196 	  113.3860 	    2.0000 	   37.0000 	   53.0945 
    0.1907 	  113.4680 	    2.0000 	   37.0000 	   53.1355 
    0.3586 	  113.5480 	    2.0000 	   37.0000 	   53.1755 
    0.4501 	  113.6240 	    2.0000 	   37.0000 	   53.2135 
    0.3738 	  113.7020 	    2.0000 	   37.0000 	   53.2525 
    0.4196 	  113.7780 	    2.0000 	   37.0000 	   53.2905 
    0.4196 	  113.8560 	    2.0000 	   37.0000 	   53.3295 
    0.4654 	  113.9280 	    2.0000 	   37.0000 	   53.3655 
    0.2976 	  113.9980 	    2.0000 	   37.0000 	   53.4005 
    0.4196 	  114.0720 	    2.0000 	   37.0000 	   53.4375 
    0.4196 	  114.1420 	    2.0000 	   37.0000 	   53.4725 
    0.3433 	  114.2180 	    2.0000 	   37.0000 	   53.5105 
    0.3738 	  114.2960 	    2.0000 	   37.0000 	   53.5495 
    0.3586 	  114.3720 	    2.0000 	   37.0000 	   53.5875 
    0.3128 	  114.4480 	    2.0000 	   37.0000 	   53.6255 
    0.3738 	  114.5280 	    2.0000 	   37.0000 	   53.6655 
    0.3586 	  114.6080 	    2.0000 	   37.0000 	   53.7055 
    0.5112 	  114.6860 	    2.0000 	   37.0000 	   53.7445 
    0.2518 	  114.7620 	    2.0000 	   37.0000 	   53.7826 
    0.2976 	  114.8360 	    2.0000 	   37.0000 	   53.8196 
    0.2518 	  114.9100 	    2.0000 	   37.0000 	   53.8566 
    0.3128 	  114.9820 	    2.0000 	   37.0000 	   53.8926 
    0.3586 	  115.0540 	    2.0000 	   37.0000 	   53.9276 
    0.3586 	  115.1240 	    2.0000 	   37.0000 	   53.9636 
    0.4044 	  115.2040 	    2.0000 	   37.0000 	   54.0036 
    0.4807 	  115.2740 	    2.0000 	   37.0000 	   54.0386 
    0.3738 	  115.3480 	    2.0000 	   37.0000 	   54.0756 
    0.3433 	  115.4300 	    2.0000 	   37.0000 	   54.1166 
    0.2976 	  115.5080 	    2.0000 	   37.0000 	   54.1556 
    0.3433 	  115.5860 	    2.0000 	   37.0000 	   54.1946 
    0.3433 	  115.6600 	    2.0000 	   37.0000 	   54.2316 
    0.2976 	  115.7320 	    2.0000 	   37.0000 	   54.2676 
    0.4196 	  115.8020 	    2.0000 	   37.0000 	   54.3026 
    0.3128 	  115.8760 	    2.0000 	   37.0000 	   54.3396 
    0.3586 	  115.9460 	    2.0000 	   37.0000 	   54.3746 
    0.2213 	  116.0180 	    2.0000 	   37.0000 	   54.4106 
    0.4807 	  116.0860 	    2.0000 	   37.0000 	   54.4446 
    0.3128 	  116.1580 	    2.0000 	   37.0000 	   54.4806 
    0.2670 	  116.2260 	    2.0000 	   37.0000 	   54.5146 
    0.0381 	  116.2960 	    2.0000 	   37.0000 	   54.5496 
    0.3738 	  116.3680 	    2.0000 	   37.0000 	   54.5856 
    0.4349 	  116.4380 	    2.0000 	   37.0000 	   54.6206 
    0.3128 	  116.5080 	    2.0000 	   37.0000 	   54.6556 
    0.2976 	  116.5800 	    2.0000 	   37.0000 	   54.6916 
    0.2976 	  116.6500 	    2.0000 	   37.0000 	   54.7266 
    0.2365 	  116.7220 	    2.0000 	   37.0000 	   54.7626 
    0.2213 	  116.7920 	    2.0000 	   37.0000 	   54.7976 
    0.4044 	  116.8620 	    2.0000 	   37.0000 	   54.8326 
    0.2518 	  116.9480 	    2.0000 	   37.0000 	   54.8756 
    0.3281 	  117.0280 	    2.0000 	   37.0000 	   54.9156 
    0.3128 	  117.1060 	    2.0000 	   37.0000 	   54.9546 
    0.3281 	  117.1860 	    2.0000 	   37.0000 	   54.9946 
    0.3891 	  117.2640 	    2.0000 	   37.0000 	   55.0336 
    0.2976 	  117.3440 	    2.0000 	   37.0000 	   55.0736 
    0.3281 	  117.4220 	    2.0000 	   37.0000 	   55.1126 
    0.3738 	  117.5020 	    2.0000 	   37.0000 	   55.1526 
    0.2823 	  117.5800 	    2.0000 	   37.0000 	   55.1916 
    0.3586 	  117.6640 	    2.0000 	   37.0000 	   55.2336 
    0.2823 	  117.7420 	    2.0000 	   37.0000 	   55.2726 
    0.2060 	  117.8240 	    2.0000 	   37.0000 	   55.3136 
    0.2518 	  117.9040 	    2.0000 	   37.0000 	   55.3536 
    0.2518 	  117.9820 	    2.0000 	   37.0000 	   55.3926 
    0.4196 	  118.0620 	    2.0000 	   37.0000 	   55.4326 
    0.2823 	  118.1460 	    2.0000 	   37.0000 	   55.4746 
    0.5264 	  118.2260 	    2.0000 	   37.0000 	   55.5146 
    0.3128 	  118.3040 	    2.0000 	   37.0000 	   55.5536 
    0.2976 	  118.3820 	    2.0000 	   37.0000 	   55.5927 
    0.3128 	  118.4640 	    2.0000 	   37.0000 	   55.6337 
    0.2518 	  118.5460 	    2.0000 	   37.0000 	   55.6747 
    0.5264 	  118.6220 	    2.0000 	   37.0000 	   55.7127 
    0.1907 	  118.7020 	    2.0000 	   37.0000 	   55.7527 
    0.3586 	  118.7800 	    2.0000 	   37.0000 	   55.7917 
    0.6180 	  118.8600 	    2.0000 	   37.0000 	   55.8317 
    0.6027 	  118.9400 	    2.0000 	   37.0000 	   55.8717 
    0.2518 	  119.0200 	    2.0000 	   37.0000 	   55.9117 
    0.4501 	  119.1000 	    2.0000 	   37.0000 	   55.9517 
    0.3433 	  119.1740 	    2.0000 	   37.0000 	   55.9887 
    0.3738 	  119.2480 	    2.0000 	   37.0000 	   56.0257 
    0.3586 	  119.3240 	    2.0000 	   37.0000 	   56.0637 
    0.2823 	  119.4020 	    2.0000 	   37.0000 	   56.1027 
    0.3281 	  119.4840 	    2.0000 	   37.0000 	   56.1437 
    0.3738 	  119.5640 	    2.0000 	   37.0000 	   56.1837 
    0.4959 	  119.6460 	    2.0000 	   37.0000 	   56.2247 
    0.3433 	  119.7280 	    2.0000 	   37.0000 	   56.2657 
    0.4196 	  119.8060 	    2.0000 	   37.0000 	   56.3047 
    0.2823 	  119.8860 	    2.0000 	   37.0000 	   56.3447 
    0.2060 	  119.9660 	    2.0000 	   37.0000 	   56.3847 
    0.2976 	  120.0480 	    2.0000 	   37.0000 	   56.4257 
    0.5417 	  120.1280 	    2.0000 	   37.0000 	   56.4657 
    0.3128 	  120.2160 	    2.0000 	   37.0000 	   56.5097 
    0.2976 	  120.3000 	    2.0000 	   37.0000 	   56.5517 
    0.4044 	  120.3780 	    2.0000 	   37.0000 	   56.5907 
    0.2976 	  120.4580 	    2.0000 	   37.0000 	   56.6307 
    0.2670 	  120.5380 	    2.0000 	   37.0000 	   56.6707 
    0.3586 	  120.6160 	    2.0000 	   37.0000 	   56.7097 
    0.4807 	  120.7020 	    2.0000 	   37.0000 	   56.7527 
    0.3433 	  120.7820 	    2.0000 	   37.0000 	   56.7927 
    0.2518 	  120.8640 	    2.0000 	   37.0000 	   56.8337 
    0.2976 	  120.9440 	    2.0000 	   37.0000 	   56.8737 
    0.3891 	  121.0220 	    2.0000 	   37.0000 	   56.9127 
    0.3586 	  121.1040 	    2.0000 	   37.0000 	   56.9537 
    0.3891 	  121.1820 	    2.0000 	   37.0000 	   56.9927 
    0.3891 	  121.2620 	    2.0000 	   37.0000 	   57.0327 
    0.1755 	  121.3440 	    2.0000 	   37.0000 	   57.0737 
    0.4044 	  121.4220 	    2.0000 	   37.0000 	   57.1127 
    0.3281 	  121.5060 	    2.0000 	   37.0000 	   57.1547 
    0.2670 	  121.5820 	    2.0000 	   37.0000 	   57.1927 
    0.2670 	  121.6620 	    2.0000 	   37.0000 	   57.2327 
    0.2213 	  121.7420 	    2.0000 	   37.0000 	   57.2728 
    0.2670 	  121.8240 	    2.0000 	   37.0000 	   57.3138 
    0.0839 	  121.9000 	    2.0000 	   37.0000 	   57.3518 
    0.3128 	  121.9840 	    2.0000 	   37.0000 	   57.3938 
    0.4196 	  122.0640 	    2.0000 	   37.0000 	   57.4338 
    0.3738 	  122.1440 	    2.0000 	   37.0000 	   57.4738 
    0.5570 	  122.2160 	    2.0000 	   37.0000 	   57.5098 
