Thayer School of Engineering        Instron 4442 Mechanical Testing System
7/5/2018 2:45:18 AM

  Force (N)	Extension (mm)	Not Used	Not Used	Not Used	     Hour	    Minute	    Second
    0.4654 	    1.0260 	    2.0000 	   46.0000 	   13.3441 
    0.5112 	    1.0550 	    2.0000 	   46.0000 	   13.3731 
    0.5875 	    1.1190 	    2.0000 	   46.0000 	   13.4371 
    0.5570 	    1.1510 	    2.0000 	   46.0000 	   13.4692 
    0.5570 	    1.2120 	    2.0000 	   46.0000 	   13.5302 
    0.4349 	    1.2460 	    2.0000 	   46.0000 	   13.5642 
    0.5112 	    1.2780 	    2.0000 	   46.0000 	   13.5962 
    0.6332 	    1.3410 	    2.0000 	   46.0000 	   13.6592 
    0.5570 	    1.3920 	    2.0000 	   46.0000 	   13.7102 
    0.7553 	    1.4400 	    2.0000 	   46.0000 	   13.7582 
    0.6180 	    1.4710 	    2.0000 	   46.0000 	   13.7892 
    0.5417 	    1.5250 	    2.0000 	   46.0000 	   13.8432 
    0.5570 	    1.5740 	    2.0000 	   46.0000 	   13.8922 
    0.6027 	    1.6240 	    2.0000 	   46.0000 	   13.9422 
    0.6332 	    1.6740 	    2.0000 	   46.0000 	   13.9922 
    0.5570 	    1.7030 	    2.0000 	   46.0000 	   14.0212 
    0.6180 	    1.7300 	    2.0000 	   46.0000 	   14.0482 
    0.6943 	    1.7590 	    2.0000 	   46.0000 	   14.0772 
    0.5722 	    1.7870 	    2.0000 	   46.0000 	   14.1052 
    0.5264 	    1.8420 	    2.0000 	   46.0000 	   14.1602 
    0.1755 	    1.8920 	    2.0000 	   46.0000 	   14.2102 
    0.3891 	    1.9420 	    2.0000 	   46.0000 	   14.2602 
    0.6638 	    1.9920 	    2.0000 	   46.0000 	   14.3102 
    0.6485 	    2.0430 	    2.0000 	   46.0000 	   14.3612 
    0.6027 	    2.0920 	    2.0000 	   46.0000 	   14.4102 
    0.6943 	    2.1210 	    2.0000 	   46.0000 	   14.4392 
    0.5112 	    2.1750 	    2.0000 	   46.0000 	   14.4932 
    0.6027 	    2.2260 	    2.0000 	   46.0000 	   14.5442 
    0.5722 	    2.2760 	    2.0000 	   46.0000 	   14.5942 
    0.5112 	    2.3260 	    2.0000 	   46.0000 	   14.6442 
    0.2976 	    2.3570 	    2.0000 	   46.0000 	   14.6752 
    0.5417 	    2.4100 	    2.0000 	   46.0000 	   14.7282 
    0.6638 	    2.4620 	    2.0000 	   46.0000 	   14.7792 
    0.6027 	    2.5100 	    2.0000 	   46.0000 	   14.8282 
    0.5875 	    2.5600 	    2.0000 	   46.0000 	   14.8782 
    0.6027 	    2.6100 	    2.0000 	   46.0000 	   14.9282 
    0.7706 	    2.6380 	    2.0000 	   46.0000 	   14.9562 
    0.3891 	    2.6650 	    2.0000 	   46.0000 	   14.9832 
    0.5875 	    2.7200 	    2.0000 	   46.0000 	   15.0382 
    0.5264 	    2.7700 	    2.0000 	   46.0000 	   15.0882 
    0.5112 	    2.8210 	    2.0000 	   46.0000 	   15.1392 
    0.7401 	    2.8720 	    2.0000 	   46.0000 	   15.1902 
    0.2823 	    2.9000 	    2.0000 	   46.0000 	   15.2183 
    0.6180 	    2.9530 	    2.0000 	   46.0000 	   15.2713 
    0.5722 	    3.0010 	    2.0000 	   46.0000 	   15.3193 
    0.5570 	    3.0520 	    2.0000 	   46.0000 	   15.3703 
    0.8011 	    3.0820 	    2.0000 	   46.0000 	   15.4003 
    0.5722 	    3.1350 	    2.0000 	   46.0000 	   15.4533 
    0.5417 	    3.1850 	    2.0000 	   46.0000 	   15.5033 
    0.5417 	    3.2140 	    2.0000 	   46.0000 	   15.5323 
    0.6180 	    3.2420 	    2.0000 	   46.0000 	   15.5603 
    0.5264 	    3.2710 	    2.0000 	   46.0000 	   15.5893 
    0.5417 	    3.3010 	    2.0000 	   46.0000 	   15.6193 
    0.5570 	    3.3320 	    2.0000 	   46.0000 	   15.6503 
    0.4501 	    3.3630 	    2.0000 	   46.0000 	   15.6813 
    0.7553 	    3.3960 	    2.0000 	   46.0000 	   15.7143 
    0.4196 	    3.4540 	    2.0000 	   46.0000 	   15.7723 
    0.5417 	    3.4870 	    2.0000 	   46.0000 	   15.8053 
    0.5722 	    3.5200 	    2.0000 	   46.0000 	   15.8383 
    0.6180 	    3.5540 	    2.0000 	   46.0000 	   15.8723 
    0.6790 	    3.5860 	    2.0000 	   46.0000 	   15.9043 
    0.5875 	    3.6170 	    2.0000 	   46.0000 	   15.9353 
    0.8164 	    3.6490 	    2.0000 	   46.0000 	   15.9673 
    0.6485 	    3.6810 	    2.0000 	   46.0000 	   15.9993 
    0.6027 	    3.7120 	    2.0000 	   46.0000 	   16.0303 
    0.5875 	    3.7460 	    2.0000 	   46.0000 	   16.0643 
    0.6485 	    3.7780 	    2.0000 	   46.0000 	   16.0963 
    0.6943 	    3.8100 	    2.0000 	   46.0000 	   16.1283 
    0.5875 	    3.8410 	    2.0000 	   46.0000 	   16.1593 
    0.5112 	    3.8730 	    2.0000 	   46.0000 	   16.1913 
    0.6638 	    3.9060 	    2.0000 	   46.0000 	   16.2243 
    0.5417 	    3.9390 	    2.0000 	   46.0000 	   16.2573 
    0.6180 	    3.9720 	    2.0000 	   46.0000 	   16.2903 
    0.5570 	    4.0060 	    2.0000 	   46.0000 	   16.3243 
    0.6638 	    4.0370 	    2.0000 	   46.0000 	   16.3553 
    0.3128 	    4.0690 	    2.0000 	   46.0000 	   16.3873 
    0.7401 	    4.1010 	    2.0000 	   46.0000 	   16.4193 
    0.5722 	    4.1610 	    2.0000 	   46.0000 	   16.4793 
    0.5722 	    4.1950 	    2.0000 	   46.0000 	   16.5133 
    0.5722 	    4.2280 	    2.0000 	   46.0000 	   16.5463 
    0.2365 	    4.2610 	    2.0000 	   46.0000 	   16.5793 
    0.5875 	    4.2960 	    2.0000 	   46.0000 	   16.6143 
    0.2670 	    4.3540 	    2.0000 	   46.0000 	   16.6723 
    0.5570 	    4.3830 	    2.0000 	   46.0000 	   16.7013 
    0.5264 	    4.4150 	    2.0000 	   46.0000 	   16.7333 
    0.5875 	    4.4440 	    2.0000 	   46.0000 	   16.7623 
    0.6180 	    4.4760 	    2.0000 	   46.0000 	   16.7943 
    0.4501 	    4.5040 	    2.0000 	   46.0000 	   16.8223 
    0.6485 	    4.5380 	    2.0000 	   46.0000 	   16.8563 
    0.6943 	    4.5680 	    2.0000 	   46.0000 	   16.8863 
    0.6332 	    4.5970 	    2.0000 	   46.0000 	   16.9153 
    0.5264 	    4.6290 	    2.0000 	   46.0000 	   16.9473 
    0.6790 	    4.6580 	    2.0000 	   46.0000 	   16.9764 
    0.6485 	    4.6900 	    2.0000 	   46.0000 	   17.0074 
    0.6790 	    4.7220 	    2.0000 	   46.0000 	   17.0394 
    0.8011 	    4.7530 	    2.0000 	   46.0000 	   17.0704 
    0.6180 	    4.7880 	    2.0000 	   46.0000 	   17.1054 
    0.7401 	    4.8210 	    2.0000 	   46.0000 	   17.1384 
    0.5875 	    4.8520 	    2.0000 	   46.0000 	   17.1694 
    0.6943 	    4.8850 	    2.0000 	   46.0000 	   17.2024 
    0.8011 	    4.9180 	    2.0000 	   46.0000 	   17.2354 
    0.6943 	    4.9490 	    2.0000 	   46.0000 	   17.2664 
    0.6180 	    4.9820 	    2.0000 	   46.0000 	   17.2994 
    0.6485 	    5.0120 	    2.0000 	   46.0000 	   17.3294 
    0.4807 	    5.0460 	    2.0000 	   46.0000 	   17.3624 
    0.7858 	    5.0770 	    2.0000 	   46.0000 	   17.3944 
    0.6332 	    5.1050 	    2.0000 	   46.0000 	   17.4224 
    0.6485 	    5.1380 	    2.0000 	   46.0000 	   17.4554 
    0.6790 	    5.1730 	    2.0000 	   46.0000 	   17.4904 
    0.6485 	    5.2020 	    2.0000 	   46.0000 	   17.5194 
    0.6943 	    5.2360 	    2.0000 	   46.0000 	   17.5534 
    0.8927 	    5.2700 	    2.0000 	   46.0000 	   17.5874 
    0.7248 	    5.3010 	    2.0000 	   46.0000 	   17.6184 
    0.7706 	    5.3410 	    2.0000 	   46.0000 	   17.6584 
    0.6332 	    5.3780 	    2.0000 	   46.0000 	   17.6954 
    0.6790 	    5.4070 	    2.0000 	   46.0000 	   17.7244 
    0.6790 	    5.4410 	    2.0000 	   46.0000 	   17.7584 
    0.5570 	    5.4730 	    2.0000 	   46.0000 	   17.7904 
    0.6180 	    5.5030 	    2.0000 	   46.0000 	   17.8204 
    0.5264 	    5.5330 	    2.0000 	   46.0000 	   17.8504 
    0.7095 	    5.5660 	    2.0000 	   46.0000 	   17.8834 
    0.6790 	    5.5970 	    2.0000 	   46.0000 	   17.9144 
    0.8011 	    5.6260 	    2.0000 	   46.0000 	   17.9434 
    0.6943 	    5.6570 	    2.0000 	   46.0000 	   17.9744 
    0.7858 	    5.6890 	    2.0000 	   46.0000 	   18.0064 
    0.7095 	    5.7200 	    2.0000 	   46.0000 	   18.0374 
    0.5722 	    5.7500 	    2.0000 	   46.0000 	   18.0674 
    0.3433 	    5.7830 	    2.0000 	   46.0000 	   18.1004 
    0.6943 	    5.8140 	    2.0000 	   46.0000 	   18.1314 
    0.6790 	    5.8440 	    2.0000 	   46.0000 	   18.1614 
    0.6790 	    5.8790 	    2.0000 	   46.0000 	   18.1964 
    0.7095 	    5.9090 	    2.0000 	   46.0000 	   18.2264 
    0.7553 	    5.9380 	    2.0000 	   46.0000 	   18.2554 
    0.6790 	    5.9710 	    2.0000 	   46.0000 	   18.2884 
    0.6790 	    6.0030 	    2.0000 	   46.0000 	   18.3204 
    0.8011 	    6.0340 	    2.0000 	   46.0000 	   18.3514 
    0.6790 	    6.0660 	    2.0000 	   46.0000 	   18.3834 
    0.7095 	    6.0990 	    2.0000 	   46.0000 	   18.4164 
    0.6485 	    6.1300 	    2.0000 	   46.0000 	   18.4474 
    0.6790 	    6.1600 	    2.0000 	   46.0000 	   18.4774 
    0.7095 	    6.1920 	    2.0000 	   46.0000 	   18.5094 
    0.5570 	    6.2230 	    2.0000 	   46.0000 	   18.5404 
    0.6790 	    6.2540 	    2.0000 	   46.0000 	   18.5714 
    0.7248 	    6.2870 	    2.0000 	   46.0000 	   18.6044 
    0.5722 	    6.3190 	    2.0000 	   46.0000 	   18.6364 
    0.4807 	    6.3510 	    2.0000 	   46.0000 	   18.6684 
    0.6638 	    6.3850 	    2.0000 	   46.0000 	   18.7024 
    0.5722 	    6.4150 	    2.0000 	   46.0000 	   18.7325 
    0.7248 	    6.4470 	    2.0000 	   46.0000 	   18.7645 
    0.4807 	    6.4790 	    2.0000 	   46.0000 	   18.7965 
    0.6943 	    6.5070 	    2.0000 	   46.0000 	   18.8245 
    0.6332 	    6.5380 	    2.0000 	   46.0000 	   18.8555 
    0.6485 	    6.5720 	    2.0000 	   46.0000 	   18.8895 
    0.6790 	    6.6010 	    2.0000 	   46.0000 	   18.9185 
    0.8164 	    6.6310 	    2.0000 	   46.0000 	   18.9485 
    0.7858 	    6.6650 	    2.0000 	   46.0000 	   18.9825 
    0.7401 	    6.6950 	    2.0000 	   46.0000 	   19.0125 
    0.6638 	    6.7250 	    2.0000 	   46.0000 	   19.0425 
    0.7553 	    6.7550 	    2.0000 	   46.0000 	   19.0725 
    0.8927 	    6.7880 	    2.0000 	   46.0000 	   19.1055 
    0.6790 	    6.8190 	    2.0000 	   46.0000 	   19.1365 
    0.7858 	    6.8480 	    2.0000 	   46.0000 	   19.1655 
    0.6485 	    6.8830 	    2.0000 	   46.0000 	   19.2005 
    0.5875 	    6.9140 	    2.0000 	   46.0000 	   19.2315 
    0.6332 	    6.9440 	    2.0000 	   46.0000 	   19.2615 
    0.5722 	    6.9760 	    2.0000 	   46.0000 	   19.2935 
    0.6638 	    7.0050 	    2.0000 	   46.0000 	   19.3225 
    0.7248 	    7.0380 	    2.0000 	   46.0000 	   19.3555 
    0.8621 	    7.0710 	    2.0000 	   46.0000 	   19.3885 
    0.6943 	    7.1020 	    2.0000 	   46.0000 	   19.4195 
    0.3738 	    7.1320 	    2.0000 	   46.0000 	   19.4495 
    0.7095 	    7.1670 	    2.0000 	   46.0000 	   19.4845 
    0.6638 	    7.1960 	    2.0000 	   46.0000 	   19.5135 
    0.6027 	    7.2270 	    2.0000 	   46.0000 	   19.5445 
    0.8011 	    7.2570 	    2.0000 	   46.0000 	   19.5745 
    0.7858 	    7.2910 	    2.0000 	   46.0000 	   19.6085 
    0.8316 	    7.3220 	    2.0000 	   46.0000 	   19.6395 
    0.7553 	    7.3550 	    2.0000 	   46.0000 	   19.6725 
    0.6485 	    7.3880 	    2.0000 	   46.0000 	   19.7055 
    0.5417 	    7.4190 	    2.0000 	   46.0000 	   19.7365 
    0.7248 	    7.4520 	    2.0000 	   46.0000 	   19.7695 
    0.8011 	    7.4840 	    2.0000 	   46.0000 	   19.8015 
    0.4196 	    7.5160 	    2.0000 	   46.0000 	   19.8335 
    0.6790 	    7.5470 	    2.0000 	   46.0000 	   19.8645 
    0.7248 	    7.5810 	    2.0000 	   46.0000 	   19.8985 
    0.7706 	    7.6120 	    2.0000 	   46.0000 	   19.9295 
    0.6332 	    7.6410 	    2.0000 	   46.0000 	   19.9585 
    0.7553 	    7.6740 	    2.0000 	   46.0000 	   19.9915 
    0.8774 	    7.7040 	    2.0000 	   46.0000 	   20.0215 
    0.4654 	    7.7370 	    2.0000 	   46.0000 	   20.0545 
    0.4654 	    7.7700 	    2.0000 	   46.0000 	   20.0875 
    0.7706 	    7.8020 	    2.0000 	   46.0000 	   20.1195 
    0.6638 	    7.8300 	    2.0000 	   46.0000 	   20.1475 
    0.6485 	    7.8620 	    2.0000 	   46.0000 	   20.1795 
    0.8164 	    7.8920 	    2.0000 	   46.0000 	   20.2095 
    0.8011 	    7.9240 	    2.0000 	   46.0000 	   20.2415 
    0.8164 	    7.9550 	    2.0000 	   46.0000 	   20.2725 
    0.6332 	    7.9850 	    2.0000 	   46.0000 	   20.3025 
    0.8011 	    8.0160 	    2.0000 	   46.0000 	   20.3335 
    0.7095 	    8.0460 	    2.0000 	   46.0000 	   20.3635 
    0.7095 	    8.0790 	    2.0000 	   46.0000 	   20.3965 
    0.7706 	    8.1090 	    2.0000 	   46.0000 	   20.4265 
    0.7706 	    8.1380 	    2.0000 	   46.0000 	   20.4556 
    0.7095 	    8.1690 	    2.0000 	   46.0000 	   20.4866 
    0.7553 	    8.2010 	    2.0000 	   46.0000 	   20.5186 
    0.7553 	    8.2330 	    2.0000 	   46.0000 	   20.5506 
    0.6790 	    8.2660 	    2.0000 	   46.0000 	   20.5836 
    0.6180 	    8.2970 	    2.0000 	   46.0000 	   20.6146 
    0.4654 	    8.3270 	    2.0000 	   46.0000 	   20.6446 
    0.8011 	    8.3590 	    2.0000 	   46.0000 	   20.6766 
    0.7706 	    8.3900 	    2.0000 	   46.0000 	   20.7076 
    0.7858 	    8.4210 	    2.0000 	   46.0000 	   20.7386 
    0.7553 	    8.4540 	    2.0000 	   46.0000 	   20.7716 
    0.6943 	    8.4890 	    2.0000 	   46.0000 	   20.8066 
    0.7706 	    8.5200 	    2.0000 	   46.0000 	   20.8376 
    0.6638 	    8.5520 	    2.0000 	   46.0000 	   20.8696 
    0.6485 	    8.5840 	    2.0000 	   46.0000 	   20.9016 
    0.6943 	    8.6140 	    2.0000 	   46.0000 	   20.9316 
    0.6790 	    8.6460 	    2.0000 	   46.0000 	   20.9636 
    0.8621 	    8.6790 	    2.0000 	   46.0000 	   20.9966 
    0.8316 	    8.7120 	    2.0000 	   46.0000 	   21.0296 
    0.7553 	    8.7430 	    2.0000 	   46.0000 	   21.0606 
    0.7706 	    8.7740 	    2.0000 	   46.0000 	   21.0916 
    0.7553 	    8.8060 	    2.0000 	   46.0000 	   21.1236 
    0.7553 	    8.8370 	    2.0000 	   46.0000 	   21.1546 
    0.8011 	    8.8710 	    2.0000 	   46.0000 	   21.1886 
    0.7095 	    8.9030 	    2.0000 	   46.0000 	   21.2206 
    0.7401 	    8.9350 	    2.0000 	   46.0000 	   21.2526 
    0.6485 	    8.9670 	    2.0000 	   46.0000 	   21.2846 
    0.7858 	    8.9970 	    2.0000 	   46.0000 	   21.3146 
    0.9842 	    9.0260 	    2.0000 	   46.0000 	   21.3436 
    0.6638 	    9.0560 	    2.0000 	   46.0000 	   21.3736 
    0.6638 	    9.1170 	    2.0000 	   46.0000 	   21.4346 
    0.6180 	    9.1470 	    2.0000 	   46.0000 	   21.4646 
    0.8621 	    9.1780 	    2.0000 	   46.0000 	   21.4956 
    0.6485 	    9.2080 	    2.0000 	   46.0000 	   21.5256 
    0.7553 	    9.2400 	    2.0000 	   46.0000 	   21.5576 
    0.7401 	    9.2750 	    2.0000 	   46.0000 	   21.5926 
    0.8011 	    9.3050 	    2.0000 	   46.0000 	   21.6226 
    0.8164 	    9.3410 	    2.0000 	   46.0000 	   21.6586 
    0.7553 	    9.3740 	    2.0000 	   46.0000 	   21.6916 
    0.8621 	    9.4060 	    2.0000 	   46.0000 	   21.7236 
    0.7095 	    9.4390 	    2.0000 	   46.0000 	   21.7566 
    0.7553 	    9.4720 	    2.0000 	   46.0000 	   21.7886 
    0.6790 	    9.5050 	    2.0000 	   46.0000 	   21.8226 
    0.8774 	    9.5380 	    2.0000 	   46.0000 	   21.8556 
    0.7095 	    9.5680 	    2.0000 	   46.0000 	   21.8856 
    0.7095 	    9.5990 	    2.0000 	   46.0000 	   21.9166 
    0.5875 	    9.6310 	    2.0000 	   46.0000 	   21.9486 
    0.8316 	    9.6630 	    2.0000 	   46.0000 	   21.9806 
    0.8469 	    9.6970 	    2.0000 	   46.0000 	   22.0136 
    0.8469 	    9.7280 	    2.0000 	   46.0000 	   22.0456 
    0.8621 	    9.7590 	    2.0000 	   46.0000 	   22.0766 
    0.9232 	    9.7890 	    2.0000 	   46.0000 	   22.1066 
    0.8774 	    9.8210 	    2.0000 	   46.0000 	   22.1386 
    0.6943 	    9.8520 	    2.0000 	   46.0000 	   22.1696 
    0.7248 	    9.8850 	    2.0000 	   46.0000 	   22.2027 
    0.8927 	    9.9170 	    2.0000 	   46.0000 	   22.2347 
    0.8011 	    9.9480 	    2.0000 	   46.0000 	   22.2657 
    0.7401 	    9.9790 	    2.0000 	   46.0000 	   22.2967 
    0.8469 	   10.0100 	    2.0000 	   46.0000 	   22.3277 
    0.8621 	   10.0400 	    2.0000 	   46.0000 	   22.3577 
    0.8164 	   10.0760 	    2.0000 	   46.0000 	   22.3937 
    0.8011 	   10.1100 	    2.0000 	   46.0000 	   22.4277 
    0.4807 	   10.1390 	    2.0000 	   46.0000 	   22.4567 
    0.4959 	   10.1720 	    2.0000 	   46.0000 	   22.4897 
    0.8011 	   10.2040 	    2.0000 	   46.0000 	   22.5217 
    0.6180 	   10.2360 	    2.0000 	   46.0000 	   22.5537 
    0.8621 	   10.2690 	    2.0000 	   46.0000 	   22.5867 
    0.7858 	   10.3020 	    2.0000 	   46.0000 	   22.6197 
    0.8011 	   10.3330 	    2.0000 	   46.0000 	   22.6507 
    0.7095 	   10.3640 	    2.0000 	   46.0000 	   22.6817 
    1.0147 	   10.3960 	    2.0000 	   46.0000 	   22.7137 
    0.8469 	   10.4280 	    2.0000 	   46.0000 	   22.7457 
    0.7095 	   10.4600 	    2.0000 	   46.0000 	   22.7777 
    0.8011 	   10.4930 	    2.0000 	   46.0000 	   22.8107 
    0.8621 	   10.5250 	    2.0000 	   46.0000 	   22.8427 
    0.6790 	   10.5560 	    2.0000 	   46.0000 	   22.8737 
    0.7401 	   10.5860 	    2.0000 	   46.0000 	   22.9037 
    0.8316 	   10.6160 	    2.0000 	   46.0000 	   22.9337 
    0.8164 	   10.6480 	    2.0000 	   46.0000 	   22.9657 
    1.0147 	   10.6810 	    2.0000 	   46.0000 	   22.9987 
    0.8164 	   10.7130 	    2.0000 	   46.0000 	   23.0307 
    0.9232 	   10.7440 	    2.0000 	   46.0000 	   23.0617 
    0.7706 	   10.7770 	    2.0000 	   46.0000 	   23.0947 
    0.7858 	   10.8080 	    2.0000 	   46.0000 	   23.1257 
    0.9384 	   10.8390 	    2.0000 	   46.0000 	   23.1567 
    0.9689 	   10.8750 	    2.0000 	   46.0000 	   23.1927 
    0.8164 	   10.9080 	    2.0000 	   46.0000 	   23.2257 
    0.9232 	   10.9380 	    2.0000 	   46.0000 	   23.2557 
    0.8774 	   10.9700 	    2.0000 	   46.0000 	   23.2877 
    0.8621 	   11.0020 	    2.0000 	   46.0000 	   23.3197 
    0.9232 	   11.0330 	    2.0000 	   46.0000 	   23.3507 
    0.8164 	   11.0680 	    2.0000 	   46.0000 	   23.3857 
    1.0147 	   11.0980 	    2.0000 	   46.0000 	   23.4157 
    0.8164 	   11.1310 	    2.0000 	   46.0000 	   23.4487 
    0.7401 	   11.1630 	    2.0000 	   46.0000 	   23.4807 
    0.8621 	   11.1960 	    2.0000 	   46.0000 	   23.5137 
    0.8164 	   11.2280 	    2.0000 	   46.0000 	   23.5457 
    0.6485 	   11.2590 	    2.0000 	   46.0000 	   23.5767 
    0.7401 	   11.2920 	    2.0000 	   46.0000 	   23.6097 
    0.9232 	   11.3250 	    2.0000 	   46.0000 	   23.6427 
    0.8011 	   11.3580 	    2.0000 	   46.0000 	   23.6757 
    0.8621 	   11.3890 	    2.0000 	   46.0000 	   23.7067 
    0.8316 	   11.4190 	    2.0000 	   46.0000 	   23.7367 
    0.7553 	   11.4510 	    2.0000 	   46.0000 	   23.7687 
    0.8164 	   11.4860 	    2.0000 	   46.0000 	   23.8037 
    0.8164 	   11.5180 	    2.0000 	   46.0000 	   23.8357 
    0.8316 	   11.5500 	    2.0000 	   46.0000 	   23.8677 
    0.8774 	   11.5850 	    2.0000 	   46.0000 	   23.9027 
    1.0300 	   11.6150 	    2.0000 	   46.0000 	   23.9327 
    0.8011 	   11.6470 	    2.0000 	   46.0000 	   23.9648 
    0.8316 	   11.6790 	    2.0000 	   46.0000 	   23.9968 
    0.8011 	   11.7120 	    2.0000 	   46.0000 	   24.0298 
    0.9689 	   11.7430 	    2.0000 	   46.0000 	   24.0608 
    0.7095 	   11.7720 	    2.0000 	   46.0000 	   24.0898 
    0.7858 	   11.8020 	    2.0000 	   46.0000 	   24.1198 
    0.7248 	   11.8370 	    2.0000 	   46.0000 	   24.1548 
    1.0452 	   11.8680 	    2.0000 	   46.0000 	   24.1858 
    0.6332 	   11.8990 	    2.0000 	   46.0000 	   24.2168 
    0.8774 	   11.9310 	    2.0000 	   46.0000 	   24.2488 
    0.8164 	   11.9640 	    2.0000 	   46.0000 	   24.2818 
    1.0452 	   11.9950 	    2.0000 	   46.0000 	   24.3128 
    0.7553 	   12.0270 	    2.0000 	   46.0000 	   24.3448 
    0.8927 	   12.0560 	    2.0000 	   46.0000 	   24.3738 
    0.7553 	   12.0900 	    2.0000 	   46.0000 	   24.4078 
    0.8469 	   12.1210 	    2.0000 	   46.0000 	   24.4388 
    0.8774 	   12.1530 	    2.0000 	   46.0000 	   24.4708 
    0.7706 	   12.1850 	    2.0000 	   46.0000 	   24.5028 
    0.8927 	   12.2160 	    2.0000 	   46.0000 	   24.5338 
    1.0758 	   12.2500 	    2.0000 	   46.0000 	   24.5678 
    0.9842 	   12.2840 	    2.0000 	   46.0000 	   24.6018 
    0.8011 	   12.3160 	    2.0000 	   46.0000 	   24.6338 
    0.8774 	   12.3490 	    2.0000 	   46.0000 	   24.6668 
    0.8774 	   12.3790 	    2.0000 	   46.0000 	   24.6968 
    0.8316 	   12.4100 	    2.0000 	   46.0000 	   24.7278 
    0.9232 	   12.4420 	    2.0000 	   46.0000 	   24.7598 
    0.8774 	   12.4780 	    2.0000 	   46.0000 	   24.7958 
    0.6638 	   12.5070 	    2.0000 	   46.0000 	   24.8248 
    0.8316 	   12.5420 	    2.0000 	   46.0000 	   24.8598 
    1.0605 	   12.5750 	    2.0000 	   46.0000 	   24.8928 
    1.0147 	   12.6080 	    2.0000 	   46.0000 	   24.9258 
    0.9079 	   12.6390 	    2.0000 	   46.0000 	   24.9568 
    0.8927 	   12.6750 	    2.0000 	   46.0000 	   24.9928 
    0.8927 	   12.7090 	    2.0000 	   46.0000 	   25.0268 
    0.8316 	   12.7420 	    2.0000 	   46.0000 	   25.0598 
    1.0452 	   12.7740 	    2.0000 	   46.0000 	   25.0918 
    0.9384 	   12.8060 	    2.0000 	   46.0000 	   25.1238 
    0.9232 	   12.8390 	    2.0000 	   46.0000 	   25.1568 
    0.8469 	   12.8760 	    2.0000 	   46.0000 	   25.1938 
    0.8774 	   12.9070 	    2.0000 	   46.0000 	   25.2248 
    0.8469 	   12.9340 	    2.0000 	   46.0000 	   25.2518 
    0.9232 	   12.9620 	    2.0000 	   46.0000 	   25.2798 
    0.8621 	   12.9890 	    2.0000 	   46.0000 	   25.3068 
    0.9537 	   13.0170 	    2.0000 	   46.0000 	   25.3348 
    0.9232 	   13.0510 	    2.0000 	   46.0000 	   25.3688 
    0.9995 	   13.0880 	    2.0000 	   46.0000 	   25.4058 
    0.8316 	   13.1200 	    2.0000 	   46.0000 	   25.4378 
    0.8164 	   13.1520 	    2.0000 	   46.0000 	   25.4698 
    0.9689 	   13.1850 	    2.0000 	   46.0000 	   25.5028 
    0.9537 	   13.2180 	    2.0000 	   46.0000 	   25.5358 
    0.9384 	   13.2490 	    2.0000 	   46.0000 	   25.5668 
    0.9689 	   13.2840 	    2.0000 	   46.0000 	   25.6018 
    1.0147 	   13.3130 	    2.0000 	   46.0000 	   25.6308 
    0.9079 	   13.3460 	    2.0000 	   46.0000 	   25.6638 
    0.9384 	   13.3780 	    2.0000 	   46.0000 	   25.6959 
    0.9384 	   13.4100 	    2.0000 	   46.0000 	   25.7279 
    0.8927 	   13.4430 	    2.0000 	   46.0000 	   25.7609 
    0.9079 	   13.4790 	    2.0000 	   46.0000 	   25.7969 
    1.1368 	   13.5100 	    2.0000 	   46.0000 	   25.8279 
    0.9079 	   13.5420 	    2.0000 	   46.0000 	   25.8599 
    0.9232 	   13.5770 	    2.0000 	   46.0000 	   25.8949 
    1.0605 	   13.6100 	    2.0000 	   46.0000 	   25.9279 
    0.8774 	   13.6410 	    2.0000 	   46.0000 	   25.9589 
    0.9537 	   13.6780 	    2.0000 	   46.0000 	   25.9959 
    1.0758 	   13.7110 	    2.0000 	   46.0000 	   26.0289 
    0.8774 	   13.7430 	    2.0000 	   46.0000 	   26.0609 
    0.9537 	   13.7770 	    2.0000 	   46.0000 	   26.0949 
    0.8469 	   13.8100 	    2.0000 	   46.0000 	   26.1279 
    0.9689 	   13.8410 	    2.0000 	   46.0000 	   26.1589 
    0.9995 	   13.8770 	    2.0000 	   46.0000 	   26.1949 
    0.8774 	   13.9080 	    2.0000 	   46.0000 	   26.2259 
    0.8927 	   13.9400 	    2.0000 	   46.0000 	   26.2579 
    0.9995 	   13.9700 	    2.0000 	   46.0000 	   26.2879 
    0.9384 	   14.0020 	    2.0000 	   46.0000 	   26.3199 
    0.8469 	   14.0350 	    2.0000 	   46.0000 	   26.3529 
    0.8469 	   14.0720 	    2.0000 	   46.0000 	   26.3899 
    0.6332 	   14.1020 	    2.0000 	   46.0000 	   26.4199 
    0.9689 	   14.1340 	    2.0000 	   46.0000 	   26.4519 
    0.9384 	   14.1650 	    2.0000 	   46.0000 	   26.4829 
    0.9537 	   14.1980 	    2.0000 	   46.0000 	   26.5159 
    0.8774 	   14.2310 	    2.0000 	   46.0000 	   26.5489 
    0.9384 	   14.2630 	    2.0000 	   46.0000 	   26.5809 
    0.9079 	   14.2940 	    2.0000 	   46.0000 	   26.6119 
    0.9232 	   14.3290 	    2.0000 	   46.0000 	   26.6469 
    0.8774 	   14.3600 	    2.0000 	   46.0000 	   26.6779 
    0.9537 	   14.3930 	    2.0000 	   46.0000 	   26.7109 
    0.9995 	   14.4260 	    2.0000 	   46.0000 	   26.7439 
    0.9232 	   14.4580 	    2.0000 	   46.0000 	   26.7759 
    0.9232 	   14.4890 	    2.0000 	   46.0000 	   26.8069 
    1.0147 	   14.5210 	    2.0000 	   46.0000 	   26.8389 
    0.9232 	   14.5530 	    2.0000 	   46.0000 	   26.8709 
    0.9842 	   14.5910 	    2.0000 	   46.0000 	   26.9089 
    0.8469 	   14.6230 	    2.0000 	   46.0000 	   26.9409 
    0.9842 	   14.6550 	    2.0000 	   46.0000 	   26.9729 
    0.9232 	   14.6870 	    2.0000 	   46.0000 	   27.0049 
    0.8774 	   14.7190 	    2.0000 	   46.0000 	   27.0369 
    0.9537 	   14.7510 	    2.0000 	   46.0000 	   27.0689 
    0.9537 	   14.7820 	    2.0000 	   46.0000 	   27.0999 
    1.0147 	   14.8170 	    2.0000 	   46.0000 	   27.1349 
    1.0910 	   14.8500 	    2.0000 	   46.0000 	   27.1679 
    0.9079 	   14.8810 	    2.0000 	   46.0000 	   27.1989 
    1.1063 	   14.9100 	    2.0000 	   46.0000 	   27.2279 
    1.0300 	   14.9390 	    2.0000 	   46.0000 	   27.2569 
    1.1215 	   14.9720 	    2.0000 	   46.0000 	   27.2899 
    1.1063 	   15.0060 	    2.0000 	   46.0000 	   27.3239 
    0.9384 	   15.0410 	    2.0000 	   46.0000 	   27.3589 
    1.1368 	   15.0760 	    2.0000 	   46.0000 	   27.3939 
    0.8164 	   15.1100 	    2.0000 	   46.0000 	   27.4279 
    1.0910 	   15.1440 	    2.0000 	   46.0000 	   27.4620 
    1.0605 	   15.1770 	    2.0000 	   46.0000 	   27.4950 
    1.0300 	   15.2120 	    2.0000 	   46.0000 	   27.5300 
    0.7858 	   15.2450 	    2.0000 	   46.0000 	   27.5630 
    0.9384 	   15.2790 	    2.0000 	   46.0000 	   27.5970 
    0.9384 	   15.3120 	    2.0000 	   46.0000 	   27.6300 
    1.1063 	   15.3470 	    2.0000 	   46.0000 	   27.6650 
    1.0300 	   15.3790 	    2.0000 	   46.0000 	   27.6970 
    1.0758 	   15.4130 	    2.0000 	   46.0000 	   27.7310 
    0.9232 	   15.4460 	    2.0000 	   46.0000 	   27.7640 
    0.7095 	   15.4790 	    2.0000 	   46.0000 	   27.7970 
    1.0605 	   15.5090 	    2.0000 	   46.0000 	   27.8270 
    0.9995 	   15.5420 	    2.0000 	   46.0000 	   27.8600 
    0.9079 	   15.5780 	    2.0000 	   46.0000 	   27.8960 
    0.8774 	   15.6100 	    2.0000 	   46.0000 	   27.9280 
    1.1978 	   15.6410 	    2.0000 	   46.0000 	   27.9590 
    0.9995 	   15.6750 	    2.0000 	   46.0000 	   27.9930 
    1.1215 	   15.7060 	    2.0000 	   46.0000 	   28.0240 
    0.9537 	   15.7380 	    2.0000 	   46.0000 	   28.0560 
    1.2284 	   15.7690 	    2.0000 	   46.0000 	   28.0870 
    1.0605 	   15.8020 	    2.0000 	   46.0000 	   28.1200 
    1.1215 	   15.8650 	    2.0000 	   46.0000 	   28.1830 
    0.9537 	   15.8970 	    2.0000 	   46.0000 	   28.2150 
    0.9384 	   15.9300 	    2.0000 	   46.0000 	   28.2480 
    0.9842 	   15.9620 	    2.0000 	   46.0000 	   28.2800 
    1.0452 	   15.9940 	    2.0000 	   46.0000 	   28.3120 
    1.1063 	   16.0280 	    2.0000 	   46.0000 	   28.3460 
    1.0300 	   16.0590 	    2.0000 	   46.0000 	   28.3770 
    0.9689 	   16.0970 	    2.0000 	   46.0000 	   28.4150 
    0.8164 	   16.1300 	    2.0000 	   46.0000 	   28.4480 
    1.0452 	   16.1630 	    2.0000 	   46.0000 	   28.4810 
    1.1826 	   16.1970 	    2.0000 	   46.0000 	   28.5150 
    0.9537 	   16.2290 	    2.0000 	   46.0000 	   28.5470 
    1.0300 	   16.2610 	    2.0000 	   46.0000 	   28.5790 
    1.0758 	   16.2960 	    2.0000 	   46.0000 	   28.6140 
    1.0452 	   16.3330 	    2.0000 	   46.0000 	   28.6510 
    0.9995 	   16.3630 	    2.0000 	   46.0000 	   28.6810 
    1.0910 	   16.3930 	    2.0000 	   46.0000 	   28.7110 
    1.1215 	   16.4240 	    2.0000 	   46.0000 	   28.7420 
    1.0910 	   16.4550 	    2.0000 	   46.0000 	   28.7730 
    0.9995 	   16.4870 	    2.0000 	   46.0000 	   28.8050 
    1.0605 	   16.5210 	    2.0000 	   46.0000 	   28.8390 
    1.1826 	   16.5530 	    2.0000 	   46.0000 	   28.8710 
    1.1978 	   16.5880 	    2.0000 	   46.0000 	   28.9060 
    1.0910 	   16.6180 	    2.0000 	   46.0000 	   28.9360 
    1.0910 	   16.6500 	    2.0000 	   46.0000 	   28.9680 
    1.1063 	   16.6800 	    2.0000 	   46.0000 	   28.9980 
    1.1673 	   16.7120 	    2.0000 	   46.0000 	   29.0300 
    1.1521 	   16.7450 	    2.0000 	   46.0000 	   29.0630 
    1.2131 	   16.7790 	    2.0000 	   46.0000 	   29.0970 
    0.9842 	   16.8120 	    2.0000 	   46.0000 	   29.1300 
    1.1063 	   16.8430 	    2.0000 	   46.0000 	   29.1610 
    1.1978 	   16.8750 	    2.0000 	   46.0000 	   29.1931 
    0.9842 	   16.9070 	    2.0000 	   46.0000 	   29.2251 
    1.1673 	   16.9390 	    2.0000 	   46.0000 	   29.2571 
    1.0452 	   16.9720 	    2.0000 	   46.0000 	   29.2901 
    1.0452 	   17.0060 	    2.0000 	   46.0000 	   29.3241 
    0.9842 	   17.0390 	    2.0000 	   46.0000 	   29.3571 
    1.1063 	   17.0760 	    2.0000 	   46.0000 	   29.3941 
    1.1826 	   17.1100 	    2.0000 	   46.0000 	   29.4281 
    1.1521 	   17.1430 	    2.0000 	   46.0000 	   29.4611 
    1.1673 	   17.1780 	    2.0000 	   46.0000 	   29.4961 
    1.1063 	   17.2110 	    2.0000 	   46.0000 	   29.5291 
    1.1063 	   17.2430 	    2.0000 	   46.0000 	   29.5611 
    1.0758 	   17.2770 	    2.0000 	   46.0000 	   29.5951 
    1.0300 	   17.3110 	    2.0000 	   46.0000 	   29.6291 
    0.9995 	   17.3440 	    2.0000 	   46.0000 	   29.6621 
    1.1063 	   17.3790 	    2.0000 	   46.0000 	   29.6971 
    1.1673 	   17.4100 	    2.0000 	   46.0000 	   29.7271 
    1.1521 	   17.4420 	    2.0000 	   46.0000 	   29.7601 
    1.0452 	   17.4730 	    2.0000 	   46.0000 	   29.7911 
    1.0910 	   17.5090 	    2.0000 	   46.0000 	   29.8271 
    1.1063 	   17.5400 	    2.0000 	   46.0000 	   29.8581 
    1.0910 	   17.5730 	    2.0000 	   46.0000 	   29.8911 
    1.1673 	   17.6080 	    2.0000 	   46.0000 	   29.9261 
    1.0605 	   17.6410 	    2.0000 	   46.0000 	   29.9591 
    1.0605 	   17.6740 	    2.0000 	   46.0000 	   29.9921 
    1.0605 	   17.7060 	    2.0000 	   46.0000 	   30.0241 
    1.2741 	   17.7400 	    2.0000 	   46.0000 	   30.0581 
    1.2741 	   17.7720 	    2.0000 	   46.0000 	   30.0901 
    0.9995 	   17.8050 	    2.0000 	   46.0000 	   30.1231 
    1.0300 	   17.8390 	    2.0000 	   46.0000 	   30.1571 
    1.1978 	   17.8700 	    2.0000 	   46.0000 	   30.1881 
    1.0147 	   17.9050 	    2.0000 	   46.0000 	   30.2231 
    1.1521 	   17.9390 	    2.0000 	   46.0000 	   30.2571 
    1.1521 	   17.9720 	    2.0000 	   46.0000 	   30.2901 
    0.7858 	   18.0050 	    2.0000 	   46.0000 	   30.3231 
    1.1215 	   18.0390 	    2.0000 	   46.0000 	   30.3571 
    1.1063 	   18.0740 	    2.0000 	   46.0000 	   30.3921 
    1.0605 	   18.1070 	    2.0000 	   46.0000 	   30.4251 
    1.1063 	   18.1400 	    2.0000 	   46.0000 	   30.4581 
    1.3504 	   18.1720 	    2.0000 	   46.0000 	   30.4901 
    1.2284 	   18.2060 	    2.0000 	   46.0000 	   30.5241 
    1.1368 	   18.2430 	    2.0000 	   46.0000 	   30.5611 
    1.1368 	   18.2740 	    2.0000 	   46.0000 	   30.5921 
    1.2436 	   18.3090 	    2.0000 	   46.0000 	   30.6271 
    1.0605 	   18.3430 	    2.0000 	   46.0000 	   30.6611 
    1.0605 	   18.3760 	    2.0000 	   46.0000 	   30.6941 
    1.1368 	   18.4100 	    2.0000 	   46.0000 	   30.7281 
    1.1978 	   18.4450 	    2.0000 	   46.0000 	   30.7631 
    1.2284 	   18.4770 	    2.0000 	   46.0000 	   30.7951 
    1.1826 	   18.5090 	    2.0000 	   46.0000 	   30.8271 
    1.2436 	   18.5410 	    2.0000 	   46.0000 	   30.8591 
    1.0758 	   18.5750 	    2.0000 	   46.0000 	   30.8931 
    1.2589 	   18.6080 	    2.0000 	   46.0000 	   30.9261 
    1.2131 	   18.6390 	    2.0000 	   46.0000 	   30.9572 
    1.1673 	   18.6700 	    2.0000 	   46.0000 	   30.9882 
    1.3199 	   18.7020 	    2.0000 	   46.0000 	   31.0202 
    1.3657 	   18.7350 	    2.0000 	   46.0000 	   31.0532 
    1.0910 	   18.7670 	    2.0000 	   46.0000 	   31.0852 
    1.2284 	   18.8000 	    2.0000 	   46.0000 	   31.1182 
    1.1673 	   18.8320 	    2.0000 	   46.0000 	   31.1502 
    1.3809 	   18.8650 	    2.0000 	   46.0000 	   31.1832 
    1.1521 	   18.8980 	    2.0000 	   46.0000 	   31.2162 
    1.0758 	   18.9310 	    2.0000 	   46.0000 	   31.2492 
    1.2741 	   18.9630 	    2.0000 	   46.0000 	   31.2812 
    1.1215 	   18.9950 	    2.0000 	   46.0000 	   31.3132 
    1.1978 	   19.0270 	    2.0000 	   46.0000 	   31.3452 
    1.1215 	   19.0600 	    2.0000 	   46.0000 	   31.3782 
    1.1215 	   19.0960 	    2.0000 	   46.0000 	   31.4142 
    1.3352 	   19.1300 	    2.0000 	   46.0000 	   31.4482 
    1.1521 	   19.1620 	    2.0000 	   46.0000 	   31.4802 
    1.1215 	   19.1930 	    2.0000 	   46.0000 	   31.5112 
    1.1673 	   19.2260 	    2.0000 	   46.0000 	   31.5442 
    1.1215 	   19.2590 	    2.0000 	   46.0000 	   31.5772 
    1.2436 	   19.2910 	    2.0000 	   46.0000 	   31.6092 
    1.1673 	   19.3220 	    2.0000 	   46.0000 	   31.6392 
    1.2436 	   19.3560 	    2.0000 	   46.0000 	   31.6742 
    1.1521 	   19.3910 	    2.0000 	   46.0000 	   31.7092 
    1.3657 	   19.4230 	    2.0000 	   46.0000 	   31.7412 
    1.3504 	   19.4570 	    2.0000 	   46.0000 	   31.7752 
    1.1978 	   19.4890 	    2.0000 	   46.0000 	   31.8072 
    1.2436 	   19.5210 	    2.0000 	   46.0000 	   31.8392 
    1.3199 	   19.5560 	    2.0000 	   46.0000 	   31.8742 
    1.1521 	   19.5920 	    2.0000 	   46.0000 	   31.9102 
    1.1673 	   19.6250 	    2.0000 	   46.0000 	   31.9432 
    1.1978 	   19.6560 	    2.0000 	   46.0000 	   31.9742 
    1.3046 	   19.6880 	    2.0000 	   46.0000 	   32.0062 
    1.1368 	   19.7200 	    2.0000 	   46.0000 	   32.0382 
    1.2894 	   19.7530 	    2.0000 	   46.0000 	   32.0712 
    1.1368 	   19.7860 	    2.0000 	   46.0000 	   32.1042 
    1.2131 	   19.8200 	    2.0000 	   46.0000 	   32.1382 
    1.3199 	   19.8520 	    2.0000 	   46.0000 	   32.1702 
    1.1673 	   19.8840 	    2.0000 	   46.0000 	   32.2022 
    1.1368 	   19.9180 	    2.0000 	   46.0000 	   32.2362 
    1.3657 	   19.9490 	    2.0000 	   46.0000 	   32.2672 
    1.1978 	   19.9830 	    2.0000 	   46.0000 	   32.3012 
    1.2741 	   20.0150 	    2.0000 	   46.0000 	   32.3332 
    1.0758 	   20.0500 	    2.0000 	   46.0000 	   32.3682 
    1.0300 	   20.0860 	    2.0000 	   46.0000 	   32.4042 
    1.2589 	   20.1170 	    2.0000 	   46.0000 	   32.4352 
    1.2436 	   20.1500 	    2.0000 	   46.0000 	   32.4682 
    1.1978 	   20.1840 	    2.0000 	   46.0000 	   32.5022 
    1.2131 	   20.2160 	    2.0000 	   46.0000 	   32.5342 
    1.3352 	   20.2500 	    2.0000 	   46.0000 	   32.5682 
    1.1673 	   20.2830 	    2.0000 	   46.0000 	   32.6012 
    1.3504 	   20.3150 	    2.0000 	   46.0000 	   32.6332 
    1.2436 	   20.3490 	    2.0000 	   46.0000 	   32.6672 
    1.2894 	   20.3830 	    2.0000 	   46.0000 	   32.7013 
    1.2284 	   20.4160 	    2.0000 	   46.0000 	   32.7343 
    1.3504 	   20.4490 	    2.0000 	   46.0000 	   32.7673 
    1.2284 	   20.4830 	    2.0000 	   46.0000 	   32.8013 
    1.2436 	   20.5150 	    2.0000 	   46.0000 	   32.8333 
    1.3504 	   20.5480 	    2.0000 	   46.0000 	   32.8663 
    1.1215 	   20.5830 	    2.0000 	   46.0000 	   32.9013 
    1.2131 	   20.6150 	    2.0000 	   46.0000 	   32.9333 
    1.1521 	   20.6510 	    2.0000 	   46.0000 	   32.9693 
    0.9842 	   20.6830 	    2.0000 	   46.0000 	   33.0013 
    1.3046 	   20.7140 	    2.0000 	   46.0000 	   33.0323 
    1.1826 	   20.7480 	    2.0000 	   46.0000 	   33.0663 
    1.3046 	   20.7800 	    2.0000 	   46.0000 	   33.0983 
    1.3352 	   20.8130 	    2.0000 	   46.0000 	   33.1313 
    1.2284 	   20.8470 	    2.0000 	   46.0000 	   33.1653 
    1.3504 	   20.8820 	    2.0000 	   46.0000 	   33.2003 
    1.2589 	   20.9150 	    2.0000 	   46.0000 	   33.2333 
    1.2589 	   20.9470 	    2.0000 	   46.0000 	   33.2653 
    1.3504 	   20.9810 	    2.0000 	   46.0000 	   33.2993 
    1.2589 	   21.0140 	    2.0000 	   46.0000 	   33.3323 
    1.2131 	   21.0490 	    2.0000 	   46.0000 	   33.3673 
    1.3809 	   21.0870 	    2.0000 	   46.0000 	   33.4053 
    1.2741 	   21.1180 	    2.0000 	   46.0000 	   33.4363 
    1.2741 	   21.1500 	    2.0000 	   46.0000 	   33.4683 
    1.3199 	   21.1840 	    2.0000 	   46.0000 	   33.5023 
    1.3504 	   21.2170 	    2.0000 	   46.0000 	   33.5353 
    1.3809 	   21.2530 	    2.0000 	   46.0000 	   33.5713 
    1.2131 	   21.2870 	    2.0000 	   46.0000 	   33.6053 
    1.4725 	   21.3200 	    2.0000 	   46.0000 	   33.6383 
    1.5488 	   21.3500 	    2.0000 	   46.0000 	   33.6683 
    1.3504 	   21.3810 	    2.0000 	   46.0000 	   33.6993 
    1.0452 	   21.4120 	    2.0000 	   46.0000 	   33.7303 
    1.3352 	   21.4410 	    2.0000 	   46.0000 	   33.7593 
    1.3352 	   21.4700 	    2.0000 	   46.0000 	   33.7883 
    1.3046 	   21.4990 	    2.0000 	   46.0000 	   33.8173 
    1.2436 	   21.5310 	    2.0000 	   46.0000 	   33.8493 
    1.1063 	   21.5630 	    2.0000 	   46.0000 	   33.8813 
    1.4420 	   21.5940 	    2.0000 	   46.0000 	   33.9123 
    1.3504 	   21.6240 	    2.0000 	   46.0000 	   33.9423 
    1.4115 	   21.6600 	    2.0000 	   46.0000 	   33.9783 
    1.3504 	   21.6930 	    2.0000 	   46.0000 	   34.0113 
    1.2894 	   21.7260 	    2.0000 	   46.0000 	   34.0443 
    1.3962 	   21.7590 	    2.0000 	   46.0000 	   34.0773 
    1.2741 	   21.7890 	    2.0000 	   46.0000 	   34.1073 
    1.3199 	   21.8200 	    2.0000 	   46.0000 	   34.1383 
    1.3199 	   21.8490 	    2.0000 	   46.0000 	   34.1673 
    1.4878 	   21.8790 	    2.0000 	   46.0000 	   34.1973 
    1.2284 	   21.9100 	    2.0000 	   46.0000 	   34.2283 
    1.4420 	   21.9390 	    2.0000 	   46.0000 	   34.2573 
    1.2589 	   21.9670 	    2.0000 	   46.0000 	   34.2853 
    1.4878 	   21.9980 	    2.0000 	   46.0000 	   34.3163 
    1.2284 	   22.0320 	    2.0000 	   46.0000 	   34.3503 
    1.4572 	   22.0650 	    2.0000 	   46.0000 	   34.3833 
    1.3809 	   22.1020 	    2.0000 	   46.0000 	   34.4203 
    1.3962 	   22.1350 	    2.0000 	   46.0000 	   34.4534 
    1.4267 	   22.1690 	    2.0000 	   46.0000 	   34.4874 
    1.4878 	   22.2050 	    2.0000 	   46.0000 	   34.5224 
    1.3809 	   22.2380 	    2.0000 	   46.0000 	   34.5554 
    1.5030 	   22.2730 	    2.0000 	   46.0000 	   34.5904 
    1.4725 	   22.3040 	    2.0000 	   46.0000 	   34.6214 
    1.0452 	   22.3330 	    2.0000 	   46.0000 	   34.6504 
    1.3809 	   22.3620 	    2.0000 	   46.0000 	   34.6794 
    1.3809 	   22.3920 	    2.0000 	   46.0000 	   34.7094 
    1.4572 	   22.4210 	    2.0000 	   46.0000 	   34.7384 
    1.4115 	   22.4500 	    2.0000 	   46.0000 	   34.7674 
    1.5640 	   22.4810 	    2.0000 	   46.0000 	   34.7984 
    1.3352 	   22.5100 	    2.0000 	   46.0000 	   34.8274 
    1.3962 	   22.5400 	    2.0000 	   46.0000 	   34.8574 
    1.3199 	   22.5730 	    2.0000 	   46.0000 	   34.8904 
    1.3504 	   22.6030 	    2.0000 	   46.0000 	   34.9194 
    1.4725 	   22.6310 	    2.0000 	   46.0000 	   34.9484 
    1.4420 	   22.6610 	    2.0000 	   46.0000 	   34.9784 
    1.2589 	   22.6900 	    2.0000 	   46.0000 	   35.0074 
    1.3962 	   22.7190 	    2.0000 	   46.0000 	   35.0364 
    1.2131 	   22.7490 	    2.0000 	   46.0000 	   35.0664 
    1.2436 	   22.7780 	    2.0000 	   46.0000 	   35.0954 
    1.1826 	   22.8090 	    2.0000 	   46.0000 	   35.1264 
    1.2894 	   22.8430 	    2.0000 	   46.0000 	   35.1604 
    1.4420 	   22.8720 	    2.0000 	   46.0000 	   35.1894 
    1.4420 	   22.9040 	    2.0000 	   46.0000 	   35.2214 
    1.2436 	   22.9360 	    2.0000 	   46.0000 	   35.2534 
    1.4115 	   22.9690 	    2.0000 	   46.0000 	   35.2864 
    1.4725 	   23.0030 	    2.0000 	   46.0000 	   35.3204 
    1.2284 	   23.0350 	    2.0000 	   46.0000 	   35.3524 
    1.5946 	   23.0710 	    2.0000 	   46.0000 	   35.3884 
    1.3809 	   23.1060 	    2.0000 	   46.0000 	   35.4234 
    1.3657 	   23.1410 	    2.0000 	   46.0000 	   35.4584 
    1.5488 	   23.1730 	    2.0000 	   46.0000 	   35.4904 
    1.5793 	   23.2080 	    2.0000 	   46.0000 	   35.5254 
    1.4725 	   23.2410 	    2.0000 	   46.0000 	   35.5584 
    1.4572 	   23.2760 	    2.0000 	   46.0000 	   35.5934 
    1.3809 	   23.3100 	    2.0000 	   46.0000 	   35.6274 
    1.1063 	   23.3430 	    2.0000 	   46.0000 	   35.6604 
    1.4420 	   23.3770 	    2.0000 	   46.0000 	   35.6944 
    1.6251 	   23.4110 	    2.0000 	   46.0000 	   35.7284 
    1.3657 	   23.4440 	    2.0000 	   46.0000 	   35.7614 
    1.5640 	   23.4790 	    2.0000 	   46.0000 	   35.7964 
    1.5030 	   23.5090 	    2.0000 	   46.0000 	   35.8264 
    1.6098 	   23.5410 	    2.0000 	   46.0000 	   35.8584 
    1.4420 	   23.5790 	    2.0000 	   46.0000 	   35.8964 
    1.4725 	   23.6120 	    2.0000 	   46.0000 	   35.9294 
    1.4115 	   23.6450 	    2.0000 	   46.0000 	   35.9624 
    1.3962 	   23.6790 	    2.0000 	   46.0000 	   35.9964 
    1.6861 	   23.7130 	    2.0000 	   46.0000 	   36.0304 
    1.4725 	   23.7450 	    2.0000 	   46.0000 	   36.0624 
    1.5335 	   23.7780 	    2.0000 	   46.0000 	   36.0954 
    1.3962 	   23.8080 	    2.0000 	   46.0000 	   36.1254 
    1.6709 	   23.8380 	    2.0000 	   46.0000 	   36.1554 
    1.5640 	   23.8670 	    2.0000 	   46.0000 	   36.1844 
    1.7166 	   23.8970 	    2.0000 	   46.0000 	   36.2145 
    1.5030 	   23.9280 	    2.0000 	   46.0000 	   36.2455 
    1.5488 	   23.9590 	    2.0000 	   46.0000 	   36.2765 
    1.2589 	   23.9890 	    2.0000 	   46.0000 	   36.3065 
    1.5183 	   24.0180 	    2.0000 	   46.0000 	   36.3355 
    1.7166 	   24.0470 	    2.0000 	   46.0000 	   36.3645 
    1.6403 	   24.0810 	    2.0000 	   46.0000 	   36.3985 
    1.4878 	   24.1130 	    2.0000 	   46.0000 	   36.4305 
    1.5640 	   24.1460 	    2.0000 	   46.0000 	   36.4635 
    1.6709 	   24.1770 	    2.0000 	   46.0000 	   36.4945 
    1.6709 	   24.2110 	    2.0000 	   46.0000 	   36.5285 
    1.5946 	   24.2440 	    2.0000 	   46.0000 	   36.5615 
    1.4725 	   24.2790 	    2.0000 	   46.0000 	   36.5965 
    1.5335 	   24.3130 	    2.0000 	   46.0000 	   36.6305 
    1.6403 	   24.3460 	    2.0000 	   46.0000 	   36.6635 
    1.2436 	   24.3780 	    2.0000 	   46.0000 	   36.6955 
    1.6098 	   24.4110 	    2.0000 	   46.0000 	   36.7285 
    1.5640 	   24.4440 	    2.0000 	   46.0000 	   36.7615 
    1.1978 	   24.4780 	    2.0000 	   46.0000 	   36.7955 
    1.5640 	   24.5120 	    2.0000 	   46.0000 	   36.8295 
    1.4878 	   24.5450 	    2.0000 	   46.0000 	   36.8625 
    1.5793 	   24.5850 	    2.0000 	   46.0000 	   36.9025 
    1.5335 	   24.6170 	    2.0000 	   46.0000 	   36.9345 
    1.5183 	   24.6510 	    2.0000 	   46.0000 	   36.9685 
    1.5793 	   24.6830 	    2.0000 	   46.0000 	   37.0005 
    1.6861 	   24.7170 	    2.0000 	   46.0000 	   37.0345 
    1.5640 	   24.7520 	    2.0000 	   46.0000 	   37.0695 
    1.6098 	   24.7850 	    2.0000 	   46.0000 	   37.1025 
    1.6709 	   24.8190 	    2.0000 	   46.0000 	   37.1365 
    1.7166 	   24.8540 	    2.0000 	   46.0000 	   37.1715 
    1.5640 	   24.8850 	    2.0000 	   46.0000 	   37.2025 
    1.4572 	   24.9140 	    2.0000 	   46.0000 	   37.2315 
    1.4420 	   24.9440 	    2.0000 	   46.0000 	   37.2615 
    1.5946 	   24.9730 	    2.0000 	   46.0000 	   37.2905 
    1.7319 	   25.0030 	    2.0000 	   46.0000 	   37.3205 
    1.4878 	   25.0330 	    2.0000 	   46.0000 	   37.3505 
    1.5335 	   25.0660 	    2.0000 	   46.0000 	   37.3835 
    1.5946 	   25.0980 	    2.0000 	   46.0000 	   37.4155 
    1.4878 	   25.1310 	    2.0000 	   46.0000 	   37.4485 
    1.6403 	   25.1600 	    2.0000 	   46.0000 	   37.4775 
    1.7014 	   25.1910 	    2.0000 	   46.0000 	   37.5085 
    1.5793 	   25.2250 	    2.0000 	   46.0000 	   37.5425 
    1.7014 	   25.2580 	    2.0000 	   46.0000 	   37.5755 
    1.5183 	   25.2930 	    2.0000 	   46.0000 	   37.6105 
    1.3809 	   25.3410 	    2.0000 	   46.0000 	   37.6585 
    1.5183 	   25.3740 	    2.0000 	   46.0000 	   37.6915 
    1.5640 	   25.4060 	    2.0000 	   46.0000 	   37.7235 
    1.4878 	   25.4400 	    2.0000 	   46.0000 	   37.7575 
    1.5793 	   25.4740 	    2.0000 	   46.0000 	   37.7915 
    1.7777 	   25.5090 	    2.0000 	   46.0000 	   37.8265 
    1.7166 	   25.5420 	    2.0000 	   46.0000 	   37.8595 
    1.6861 	   25.5800 	    2.0000 	   46.0000 	   37.8975 
    1.5640 	   25.6160 	    2.0000 	   46.0000 	   37.9335 
    1.7166 	   25.6510 	    2.0000 	   46.0000 	   37.9686 
    1.6403 	   25.6850 	    2.0000 	   46.0000 	   38.0026 
    1.7472 	   25.7180 	    2.0000 	   46.0000 	   38.0356 
    1.6098 	   25.7520 	    2.0000 	   46.0000 	   38.0696 
    1.7319 	   25.7870 	    2.0000 	   46.0000 	   38.1046 
    1.7014 	   25.8210 	    2.0000 	   46.0000 	   38.1386 
    1.7166 	   25.8540 	    2.0000 	   46.0000 	   38.1716 
    1.6556 	   25.8880 	    2.0000 	   46.0000 	   38.2056 
    1.7014 	   25.9230 	    2.0000 	   46.0000 	   38.2406 
    1.6861 	   25.9570 	    2.0000 	   46.0000 	   38.2746 
    1.7166 	   25.9900 	    2.0000 	   46.0000 	   38.3076 
    1.6556 	   26.0230 	    2.0000 	   46.0000 	   38.3406 
    1.7472 	   26.0550 	    2.0000 	   46.0000 	   38.3726 
    1.6709 	   26.0880 	    2.0000 	   46.0000 	   38.4056 
    1.7929 	   26.1160 	    2.0000 	   46.0000 	   38.4336 
    1.5640 	   26.1450 	    2.0000 	   46.0000 	   38.4626 
    1.8692 	   26.1780 	    2.0000 	   46.0000 	   38.4956 
    1.7014 	   26.2100 	    2.0000 	   46.0000 	   38.5276 
    1.7624 	   26.2420 	    2.0000 	   46.0000 	   38.5596 
    1.7166 	   26.2710 	    2.0000 	   46.0000 	   38.5886 
    1.5335 	   26.3010 	    2.0000 	   46.0000 	   38.6186 
    1.7472 	   26.3310 	    2.0000 	   46.0000 	   38.6486 
    1.8997 	   26.3610 	    2.0000 	   46.0000 	   38.6786 
    1.6251 	   26.3910 	    2.0000 	   46.0000 	   38.7086 
    1.7777 	   26.4210 	    2.0000 	   46.0000 	   38.7386 
    1.7777 	   26.4510 	    2.0000 	   46.0000 	   38.7686 
    1.7624 	   26.4820 	    2.0000 	   46.0000 	   38.7996 
    1.7014 	   26.5110 	    2.0000 	   46.0000 	   38.8286 
    1.7624 	   26.5410 	    2.0000 	   46.0000 	   38.8586 
    1.4267 	   26.5740 	    2.0000 	   46.0000 	   38.8916 
    1.7929 	   26.6030 	    2.0000 	   46.0000 	   38.9206 
    1.8082 	   26.6330 	    2.0000 	   46.0000 	   38.9506 
    1.7472 	   26.6630 	    2.0000 	   46.0000 	   38.9806 
    1.7319 	   26.6920 	    2.0000 	   46.0000 	   39.0096 
    1.7929 	   26.7220 	    2.0000 	   46.0000 	   39.0396 
    1.7166 	   26.7520 	    2.0000 	   46.0000 	   39.0696 
    1.7929 	   26.7820 	    2.0000 	   46.0000 	   39.0996 
    1.7777 	   26.8130 	    2.0000 	   46.0000 	   39.1306 
    1.6861 	   26.8420 	    2.0000 	   46.0000 	   39.1596 
    1.8235 	   26.8720 	    2.0000 	   46.0000 	   39.1896 
    1.8235 	   26.9020 	    2.0000 	   46.0000 	   39.2196 
    1.8387 	   26.9320 	    2.0000 	   46.0000 	   39.2496 
    1.8997 	   26.9660 	    2.0000 	   46.0000 	   39.2836 
    1.8235 	   26.9960 	    2.0000 	   46.0000 	   39.3136 
    1.7166 	   27.0260 	    2.0000 	   46.0000 	   39.3436 
    1.7472 	   27.0560 	    2.0000 	   46.0000 	   39.3736 
    1.8082 	   27.0900 	    2.0000 	   46.0000 	   39.4076 
    1.7929 	   27.1200 	    2.0000 	   46.0000 	   39.4376 
    1.7166 	   27.1500 	    2.0000 	   46.0000 	   39.4676 
    2.1134 	   27.1800 	    2.0000 	   46.0000 	   39.4976 
    2.0371 	   27.2090 	    2.0000 	   46.0000 	   39.5266 
    1.7624 	   27.2420 	    2.0000 	   46.0000 	   39.5596 
    1.7319 	   27.2730 	    2.0000 	   46.0000 	   39.5906 
    1.7777 	   27.3020 	    2.0000 	   46.0000 	   39.6196 
    1.9150 	   27.3330 	    2.0000 	   46.0000 	   39.6507 
    1.7777 	   27.3620 	    2.0000 	   46.0000 	   39.6796 
    1.8235 	   27.3930 	    2.0000 	   46.0000 	   39.7107 
    1.7929 	   27.4220 	    2.0000 	   46.0000 	   39.7397 
    1.7777 	   27.4520 	    2.0000 	   46.0000 	   39.7697 
    1.6556 	   27.4830 	    2.0000 	   46.0000 	   39.8007 
    1.8845 	   27.5120 	    2.0000 	   46.0000 	   39.8297 
    1.5335 	   27.5430 	    2.0000 	   46.0000 	   39.8607 
    1.8387 	   27.5760 	    2.0000 	   46.0000 	   39.8937 
    1.8387 	   27.6060 	    2.0000 	   46.0000 	   39.9237 
    1.6861 	   27.6350 	    2.0000 	   46.0000 	   39.9527 
    1.7777 	   27.6660 	    2.0000 	   46.0000 	   39.9837 
    1.7929 	   27.6960 	    2.0000 	   46.0000 	   40.0137 
    1.6556 	   27.7260 	    2.0000 	   46.0000 	   40.0437 
    1.7319 	   27.7560 	    2.0000 	   46.0000 	   40.0737 
    1.7624 	   27.7850 	    2.0000 	   46.0000 	   40.1027 
    1.8387 	   27.8160 	    2.0000 	   46.0000 	   40.1337 
    1.7624 	   27.8470 	    2.0000 	   46.0000 	   40.1647 
    1.9150 	   27.8770 	    2.0000 	   46.0000 	   40.1947 
    1.9608 	   27.9080 	    2.0000 	   46.0000 	   40.2257 
    1.9150 	   27.9420 	    2.0000 	   46.0000 	   40.2597 
    1.9303 	   27.9760 	    2.0000 	   46.0000 	   40.2937 
    1.8387 	   28.0080 	    2.0000 	   46.0000 	   40.3257 
    1.8692 	   28.0380 	    2.0000 	   46.0000 	   40.3557 
    1.7166 	   28.0710 	    2.0000 	   46.0000 	   40.3887 
    1.8997 	   28.1020 	    2.0000 	   46.0000 	   40.4197 
    1.8387 	   28.1350 	    2.0000 	   46.0000 	   40.4527 
    2.0523 	   28.1690 	    2.0000 	   46.0000 	   40.4867 
    1.8997 	   28.2020 	    2.0000 	   46.0000 	   40.5197 
    1.9303 	   28.2380 	    2.0000 	   46.0000 	   40.5557 
    1.8235 	   28.2720 	    2.0000 	   46.0000 	   40.5897 
    1.8845 	   28.3060 	    2.0000 	   46.0000 	   40.6237 
    1.7014 	   28.3420 	    2.0000 	   46.0000 	   40.6597 
    1.9150 	   28.3760 	    2.0000 	   46.0000 	   40.6937 
    1.5946 	   28.4100 	    2.0000 	   46.0000 	   40.7277 
    1.8997 	   28.4430 	    2.0000 	   46.0000 	   40.7607 
    1.9455 	   28.4760 	    2.0000 	   46.0000 	   40.7937 
    2.0066 	   28.5100 	    2.0000 	   46.0000 	   40.8277 
    1.9303 	   28.5440 	    2.0000 	   46.0000 	   40.8617 
    1.9608 	   28.5810 	    2.0000 	   46.0000 	   40.8987 
    1.7166 	   28.6130 	    2.0000 	   46.0000 	   40.9307 
    1.9913 	   28.6500 	    2.0000 	   46.0000 	   40.9677 
    1.9608 	   28.6860 	    2.0000 	   46.0000 	   41.0037 
    1.9760 	   28.7210 	    2.0000 	   46.0000 	   41.0387 
    2.0371 	   28.7570 	    2.0000 	   46.0000 	   41.0747 
    1.8235 	   28.7900 	    2.0000 	   46.0000 	   41.1077 
    1.8997 	   28.8230 	    2.0000 	   46.0000 	   41.1407 
    2.0066 	   28.8560 	    2.0000 	   46.0000 	   41.1737 
    2.0523 	   28.8920 	    2.0000 	   46.0000 	   41.2097 
    1.8997 	   28.9260 	    2.0000 	   46.0000 	   41.2437 
    1.6098 	   28.9590 	    2.0000 	   46.0000 	   41.2767 
    1.9455 	   28.9960 	    2.0000 	   46.0000 	   41.3137 
    2.0523 	   29.0290 	    2.0000 	   46.0000 	   41.3467 
    1.9150 	   29.0620 	    2.0000 	   46.0000 	   41.3797 
    1.9150 	   29.0970 	    2.0000 	   46.0000 	   41.4147 
    1.9455 	   29.1260 	    2.0000 	   46.0000 	   41.4438 
    2.0981 	   29.1580 	    2.0000 	   46.0000 	   41.4758 
    1.8845 	   29.1910 	    2.0000 	   46.0000 	   41.5088 
    2.0218 	   29.2230 	    2.0000 	   46.0000 	   41.5408 
    1.9608 	   29.2580 	    2.0000 	   46.0000 	   41.5758 
    2.0218 	   29.2900 	    2.0000 	   46.0000 	   41.6078 
    1.8845 	   29.3230 	    2.0000 	   46.0000 	   41.6408 
    2.0066 	   29.3580 	    2.0000 	   46.0000 	   41.6758 
    2.0981 	   29.3920 	    2.0000 	   46.0000 	   41.7098 
    2.0066 	   29.4240 	    2.0000 	   46.0000 	   41.7418 
    2.0218 	   29.4600 	    2.0000 	   46.0000 	   41.7778 
    1.9913 	   29.4950 	    2.0000 	   46.0000 	   41.8128 
    1.9608 	   29.5300 	    2.0000 	   46.0000 	   41.8478 
    2.0981 	   29.5640 	    2.0000 	   46.0000 	   41.8818 
    1.9913 	   29.6030 	    2.0000 	   46.0000 	   41.9208 
    2.0676 	   29.6370 	    2.0000 	   46.0000 	   41.9548 
    2.0676 	   29.6690 	    2.0000 	   46.0000 	   41.9868 
    2.1592 	   29.7000 	    2.0000 	   46.0000 	   42.0178 
    2.0676 	   29.7310 	    2.0000 	   46.0000 	   42.0488 
    2.0066 	   29.7660 	    2.0000 	   46.0000 	   42.0838 
    2.0371 	   29.7980 	    2.0000 	   46.0000 	   42.1158 
    2.0218 	   29.8320 	    2.0000 	   46.0000 	   42.1498 
    2.0371 	   29.8660 	    2.0000 	   46.0000 	   42.1838 
    2.0218 	   29.9000 	    2.0000 	   46.0000 	   42.2178 
    1.9455 	   29.9320 	    2.0000 	   46.0000 	   42.2498 
    2.0066 	   29.9690 	    2.0000 	   46.0000 	   42.2868 
    2.1286 	   30.0050 	    2.0000 	   46.0000 	   42.3228 
    2.0676 	   30.0390 	    2.0000 	   46.0000 	   42.3568 
    1.9608 	   30.0770 	    2.0000 	   46.0000 	   42.3948 
    2.1744 	   30.1110 	    2.0000 	   46.0000 	   42.4288 
    2.1286 	   30.1490 	    2.0000 	   46.0000 	   42.4668 
    2.0371 	   30.1820 	    2.0000 	   46.0000 	   42.4998 
    2.0523 	   30.2160 	    2.0000 	   46.0000 	   42.5338 
    2.1897 	   30.2490 	    2.0000 	   46.0000 	   42.5668 
    2.1897 	   30.2820 	    2.0000 	   46.0000 	   42.5998 
    2.1439 	   30.3160 	    2.0000 	   46.0000 	   42.6338 
    2.0981 	   30.3490 	    2.0000 	   46.0000 	   42.6668 
    2.0829 	   30.3840 	    2.0000 	   46.0000 	   42.7018 
    2.1744 	   30.4170 	    2.0000 	   46.0000 	   42.7348 
    2.1897 	   30.4510 	    2.0000 	   46.0000 	   42.7688 
    2.1286 	   30.4860 	    2.0000 	   46.0000 	   42.8038 
    2.0218 	   30.5210 	    2.0000 	   46.0000 	   42.8388 
    2.1744 	   30.5540 	    2.0000 	   46.0000 	   42.8718 
    2.0676 	   30.5880 	    2.0000 	   46.0000 	   42.9058 
    1.9760 	   30.6200 	    2.0000 	   46.0000 	   42.9378 
    2.1439 	   30.6530 	    2.0000 	   46.0000 	   42.9708 
    2.2049 	   30.6850 	    2.0000 	   46.0000 	   43.0028 
    2.0981 	   30.7200 	    2.0000 	   46.0000 	   43.0378 
    2.1439 	   30.7600 	    2.0000 	   46.0000 	   43.0778 
    2.1286 	   30.7930 	    2.0000 	   46.0000 	   43.1108 
    1.8387 	   30.8260 	    2.0000 	   46.0000 	   43.1438 
    1.9150 	   30.8610 	    2.0000 	   46.0000 	   43.1788 
    2.0829 	   30.8960 	    2.0000 	   46.0000 	   43.2139 
    2.2202 	   30.9330 	    2.0000 	   46.0000 	   43.2509 
    2.1592 	   30.9680 	    2.0000 	   46.0000 	   43.2859 
    2.1439 	   31.0040 	    2.0000 	   46.0000 	   43.3219 
    1.9913 	   31.0380 	    2.0000 	   46.0000 	   43.3559 
    1.8997 	   31.0730 	    2.0000 	   46.0000 	   43.3909 
    2.1439 	   31.1060 	    2.0000 	   46.0000 	   43.4239 
    2.1592 	   31.1410 	    2.0000 	   46.0000 	   43.4589 
    2.1592 	   31.1750 	    2.0000 	   46.0000 	   43.4929 
    2.1744 	   31.2110 	    2.0000 	   46.0000 	   43.5289 
    1.8997 	   31.2450 	    2.0000 	   46.0000 	   43.5629 
    2.0523 	   31.2790 	    2.0000 	   46.0000 	   43.5969 
    2.0829 	   31.3140 	    2.0000 	   46.0000 	   43.6319 
    2.0829 	   31.3500 	    2.0000 	   46.0000 	   43.6679 
    2.0829 	   31.3820 	    2.0000 	   46.0000 	   43.6999 
    2.1286 	   31.4130 	    2.0000 	   46.0000 	   43.7309 
    2.0218 	   31.4420 	    2.0000 	   46.0000 	   43.7599 
    2.1134 	   31.4730 	    2.0000 	   46.0000 	   43.7909 
    1.9150 	   31.5070 	    2.0000 	   46.0000 	   43.8249 
    2.0829 	   31.5420 	    2.0000 	   46.0000 	   43.8599 
    2.0676 	   31.5760 	    2.0000 	   46.0000 	   43.8939 
    2.0829 	   31.6110 	    2.0000 	   46.0000 	   43.9289 
    2.0829 	   31.6430 	    2.0000 	   46.0000 	   43.9609 
    2.0829 	   31.6780 	    2.0000 	   46.0000 	   43.9959 
    2.0218 	   31.7150 	    2.0000 	   46.0000 	   44.0329 
    2.0523 	   31.7500 	    2.0000 	   46.0000 	   44.0679 
    2.2049 	   31.7840 	    2.0000 	   46.0000 	   44.1019 
    2.1134 	   31.8150 	    2.0000 	   46.0000 	   44.1329 
    2.0523 	   31.8480 	    2.0000 	   46.0000 	   44.1659 
    2.0829 	   31.8820 	    2.0000 	   46.0000 	   44.1999 
    2.0066 	   31.9150 	    2.0000 	   46.0000 	   44.2329 
    2.0829 	   31.9490 	    2.0000 	   46.0000 	   44.2669 
    2.1592 	   31.9830 	    2.0000 	   46.0000 	   44.3009 
    2.0066 	   32.0170 	    2.0000 	   46.0000 	   44.3349 
    2.0981 	   32.0520 	    2.0000 	   46.0000 	   44.3699 
    1.7929 	   32.0880 	    2.0000 	   46.0000 	   44.4059 
    2.1286 	   32.1220 	    2.0000 	   46.0000 	   44.4399 
    2.1286 	   32.1580 	    2.0000 	   46.0000 	   44.4759 
    1.9760 	   32.1920 	    2.0000 	   46.0000 	   44.5099 
    2.0676 	   32.2250 	    2.0000 	   46.0000 	   44.5429 
    2.0829 	   32.2590 	    2.0000 	   46.0000 	   44.5769 
    2.0523 	   32.2930 	    2.0000 	   46.0000 	   44.6109 
    2.1134 	   32.3260 	    2.0000 	   46.0000 	   44.6439 
    2.0371 	   32.3600 	    2.0000 	   46.0000 	   44.6779 
    2.0218 	   32.3940 	    2.0000 	   46.0000 	   44.7119 
    2.0371 	   32.4290 	    2.0000 	   46.0000 	   44.7469 
    2.1134 	   32.4650 	    2.0000 	   46.0000 	   44.7829 
    2.2049 	   32.5010 	    2.0000 	   46.0000 	   44.8189 
    2.1744 	   32.5350 	    2.0000 	   46.0000 	   44.8529 
    1.8387 	   32.5690 	    2.0000 	   46.0000 	   44.8869 
    1.9608 	   32.6040 	    2.0000 	   46.0000 	   44.9220 
    1.8692 	   32.6400 	    2.0000 	   46.0000 	   44.9580 
    2.2965 	   32.6740 	    2.0000 	   46.0000 	   44.9920 
    2.0371 	   32.7100 	    2.0000 	   46.0000 	   45.0280 
    1.9760 	   32.7410 	    2.0000 	   46.0000 	   45.0590 
    2.2049 	   32.7740 	    2.0000 	   46.0000 	   45.0920 
    2.1439 	   32.8040 	    2.0000 	   46.0000 	   45.1220 
    1.9608 	   32.8360 	    2.0000 	   46.0000 	   45.1540 
    2.1439 	   32.8660 	    2.0000 	   46.0000 	   45.1840 
    2.1744 	   32.8960 	    2.0000 	   46.0000 	   45.2140 
    2.0676 	   32.9280 	    2.0000 	   46.0000 	   45.2460 
    2.0676 	   32.9590 	    2.0000 	   46.0000 	   45.2770 
    2.1134 	   32.9900 	    2.0000 	   46.0000 	   45.3080 
    2.1592 	   33.0250 	    2.0000 	   46.0000 	   45.3430 
    2.0371 	   33.0600 	    2.0000 	   46.0000 	   45.3780 
    1.9455 	   33.0960 	    2.0000 	   46.0000 	   45.4140 
    2.0218 	   33.1300 	    2.0000 	   46.0000 	   45.4480 
    2.1592 	   33.1670 	    2.0000 	   46.0000 	   45.4850 
    2.1592 	   33.2020 	    2.0000 	   46.0000 	   45.5200 
    2.1134 	   33.2400 	    2.0000 	   46.0000 	   45.5580 
    2.3117 	   33.2750 	    2.0000 	   46.0000 	   45.5930 
    1.9608 	   33.3100 	    2.0000 	   46.0000 	   45.6280 
    2.0523 	   33.3470 	    2.0000 	   46.0000 	   45.6650 
    2.0523 	   33.3820 	    2.0000 	   46.0000 	   45.7000 
    2.0218 	   33.4160 	    2.0000 	   46.0000 	   45.7340 
    2.0981 	   33.4490 	    2.0000 	   46.0000 	   45.7670 
    2.0829 	   33.4840 	    2.0000 	   46.0000 	   45.8020 
    2.1134 	   33.5180 	    2.0000 	   46.0000 	   45.8360 
    2.0676 	   33.5530 	    2.0000 	   46.0000 	   45.8710 
    2.0829 	   33.5870 	    2.0000 	   46.0000 	   45.9050 
    2.0218 	   33.6200 	    2.0000 	   46.0000 	   45.9380 
    2.1592 	   33.6550 	    2.0000 	   46.0000 	   45.9730 
    2.1286 	   33.6910 	    2.0000 	   46.0000 	   46.0090 
    2.1134 	   33.7250 	    2.0000 	   46.0000 	   46.0430 
    2.0523 	   33.7600 	    2.0000 	   46.0000 	   46.0780 
    2.1286 	   33.7960 	    2.0000 	   46.0000 	   46.1140 
    1.9455 	   33.8300 	    2.0000 	   46.0000 	   46.1480 
    2.0523 	   33.8680 	    2.0000 	   46.0000 	   46.1860 
    1.9455 	   33.9010 	    2.0000 	   46.0000 	   46.2190 
    2.0676 	   33.9320 	    2.0000 	   46.0000 	   46.2500 
    1.9150 	   33.9620 	    2.0000 	   46.0000 	   46.2800 
    2.0981 	   33.9940 	    2.0000 	   46.0000 	   46.3120 
    1.9760 	   34.0290 	    2.0000 	   46.0000 	   46.3470 
    1.9913 	   34.0630 	    2.0000 	   46.0000 	   46.3810 
    2.1744 	   34.0970 	    2.0000 	   46.0000 	   46.4150 
    1.8845 	   34.1310 	    2.0000 	   46.0000 	   46.4490 
    2.0066 	   34.1670 	    2.0000 	   46.0000 	   46.4850 
    2.0218 	   34.2010 	    2.0000 	   46.0000 	   46.5190 
    2.1744 	   34.2340 	    2.0000 	   46.0000 	   46.5520 
    1.9303 	   34.2680 	    2.0000 	   46.0000 	   46.5860 
    2.0066 	   34.3020 	    2.0000 	   46.0000 	   46.6200 
    1.9303 	   34.3370 	    2.0000 	   46.0000 	   46.6550 
    1.6098 	   34.3700 	    2.0000 	   46.0000 	   46.6880 
    2.0371 	   34.4040 	    2.0000 	   46.0000 	   46.7221 
    2.1744 	   34.4390 	    2.0000 	   46.0000 	   46.7571 
    2.0523 	   34.4740 	    2.0000 	   46.0000 	   46.7921 
    1.9913 	   34.5100 	    2.0000 	   46.0000 	   46.8281 
    1.9913 	   34.5440 	    2.0000 	   46.0000 	   46.8621 
    2.0371 	   34.5800 	    2.0000 	   46.0000 	   46.8981 
    2.1286 	   34.6160 	    2.0000 	   46.0000 	   46.9341 
    1.8540 	   34.6520 	    2.0000 	   46.0000 	   46.9701 
    2.0218 	   34.6840 	    2.0000 	   46.0000 	   47.0021 
    1.9455 	   34.7190 	    2.0000 	   46.0000 	   47.0371 
    2.0523 	   34.7530 	    2.0000 	   46.0000 	   47.0711 
    1.9760 	   34.7890 	    2.0000 	   46.0000 	   47.1071 
    2.0218 	   34.8230 	    2.0000 	   46.0000 	   47.1411 
    2.1134 	   34.8600 	    2.0000 	   46.0000 	   47.1781 
    2.0829 	   34.8930 	    2.0000 	   46.0000 	   47.2111 
    2.0066 	   34.9310 	    2.0000 	   46.0000 	   47.2481 
    1.9608 	   34.9670 	    2.0000 	   46.0000 	   47.2851 
    1.8692 	   35.0040 	    2.0000 	   46.0000 	   47.3221 
    2.0066 	   35.0390 	    2.0000 	   46.0000 	   47.3571 
    1.8997 	   35.0770 	    2.0000 	   46.0000 	   47.3951 
    2.0829 	   35.1160 	    2.0000 	   46.0000 	   47.4341 
    1.9303 	   35.1490 	    2.0000 	   46.0000 	   47.4671 
    1.9760 	   35.1810 	    2.0000 	   46.0000 	   47.4991 
    2.0523 	   35.2110 	    2.0000 	   46.0000 	   47.5291 
    1.9303 	   35.2430 	    2.0000 	   46.0000 	   47.5611 
    1.9150 	   35.2740 	    2.0000 	   46.0000 	   47.5921 
    1.9913 	   35.3070 	    2.0000 	   46.0000 	   47.6251 
    1.9608 	   35.3390 	    2.0000 	   46.0000 	   47.6571 
    1.7472 	   35.3710 	    2.0000 	   46.0000 	   47.6891 
    2.0371 	   35.4020 	    2.0000 	   46.0000 	   47.7201 
    1.9150 	   35.4330 	    2.0000 	   46.0000 	   47.7511 
    2.0218 	   35.4630 	    2.0000 	   46.0000 	   47.7811 
    1.9303 	   35.4950 	    2.0000 	   46.0000 	   47.8131 
    1.9760 	   35.5250 	    2.0000 	   46.0000 	   47.8431 
    2.0066 	   35.5570 	    2.0000 	   46.0000 	   47.8751 
    2.0218 	   35.5930 	    2.0000 	   46.0000 	   47.9111 
    2.0829 	   35.6290 	    2.0000 	   46.0000 	   47.9471 
    1.9455 	   35.6610 	    2.0000 	   46.0000 	   47.9791 
    2.0371 	   35.6970 	    2.0000 	   46.0000 	   48.0151 
    2.1439 	   35.7330 	    2.0000 	   46.0000 	   48.0511 
    2.0523 	   35.7700 	    2.0000 	   46.0000 	   48.0881 
    1.9608 	   35.8050 	    2.0000 	   46.0000 	   48.1231 
    1.9913 	   35.8430 	    2.0000 	   46.0000 	   48.1611 
    1.9760 	   35.8770 	    2.0000 	   46.0000 	   48.1951 
    2.0218 	   35.9070 	    2.0000 	   46.0000 	   48.2251 
    2.0066 	   35.9390 	    2.0000 	   46.0000 	   48.2571 
    2.0218 	   35.9710 	    2.0000 	   46.0000 	   48.2891 
    1.7777 	   36.0020 	    2.0000 	   46.0000 	   48.3201 
    1.8692 	   36.0330 	    2.0000 	   46.0000 	   48.3511 
    1.8082 	   36.0690 	    2.0000 	   46.0000 	   48.3871 
    2.0829 	   36.1000 	    2.0000 	   46.0000 	   48.4182 
    1.8540 	   36.1310 	    2.0000 	   46.0000 	   48.4492 
    1.9760 	   36.1630 	    2.0000 	   46.0000 	   48.4812 
    1.9760 	   36.1940 	    2.0000 	   46.0000 	   48.5122 
    2.0523 	   36.2260 	    2.0000 	   46.0000 	   48.5442 
    1.8235 	   36.2570 	    2.0000 	   46.0000 	   48.5752 
    1.9608 	   36.2890 	    2.0000 	   46.0000 	   48.6072 
    1.9913 	   36.3210 	    2.0000 	   46.0000 	   48.6392 
    2.0066 	   36.3520 	    2.0000 	   46.0000 	   48.6702 
    1.9760 	   36.3830 	    2.0000 	   46.0000 	   48.7012 
    1.9760 	   36.4150 	    2.0000 	   46.0000 	   48.7332 
    1.9303 	   36.4460 	    2.0000 	   46.0000 	   48.7642 
    1.9760 	   36.4780 	    2.0000 	   46.0000 	   48.7962 
    1.9150 	   36.5080 	    2.0000 	   46.0000 	   48.8262 
    1.8540 	   36.5400 	    2.0000 	   46.0000 	   48.8582 
    2.1134 	   36.5720 	    2.0000 	   46.0000 	   48.8902 
    2.0066 	   36.6030 	    2.0000 	   46.0000 	   48.9212 
    2.0981 	   36.6330 	    2.0000 	   46.0000 	   48.9512 
    1.7472 	   36.6650 	    2.0000 	   46.0000 	   48.9832 
    2.2660 	   36.6960 	    2.0000 	   46.0000 	   49.0142 
    2.0371 	   36.7260 	    2.0000 	   46.0000 	   49.0442 
    2.0676 	   36.7580 	    2.0000 	   46.0000 	   49.0762 
    2.1744 	   36.7900 	    2.0000 	   46.0000 	   49.1082 
    2.0981 	   36.8220 	    2.0000 	   46.0000 	   49.1402 
    2.1897 	   36.8530 	    2.0000 	   46.0000 	   49.1712 
    1.9913 	   36.8840 	    2.0000 	   46.0000 	   49.2022 
    2.0523 	   36.9150 	    2.0000 	   46.0000 	   49.2332 
    1.9760 	   36.9480 	    2.0000 	   46.0000 	   49.2662 
    2.0523 	   36.9850 	    2.0000 	   46.0000 	   49.3032 
    1.9150 	   37.0210 	    2.0000 	   46.0000 	   49.3392 
    2.1897 	   37.0540 	    2.0000 	   46.0000 	   49.3722 
    1.6861 	   37.0880 	    2.0000 	   46.0000 	   49.4062 
    1.8845 	   37.1200 	    2.0000 	   46.0000 	   49.4382 
    1.7319 	   37.1510 	    2.0000 	   46.0000 	   49.4692 
    2.0066 	   37.1870 	    2.0000 	   46.0000 	   49.5052 
    2.1897 	   37.2220 	    2.0000 	   46.0000 	   49.5402 
    2.0218 	   37.2580 	    2.0000 	   46.0000 	   49.5762 
    1.9760 	   37.2930 	    2.0000 	   46.0000 	   49.6112 
    2.0066 	   37.3400 	    2.0000 	   46.0000 	   49.6582 
    2.0981 	   37.3780 	    2.0000 	   46.0000 	   49.6962 
    2.0829 	   37.4120 	    2.0000 	   46.0000 	   49.7302 
    2.0523 	   37.4470 	    2.0000 	   46.0000 	   49.7652 
    1.9608 	   37.4820 	    2.0000 	   46.0000 	   49.8002 
    1.9608 	   37.5190 	    2.0000 	   46.0000 	   49.8372 
    1.7014 	   37.5550 	    2.0000 	   46.0000 	   49.8732 
    2.0829 	   37.5910 	    2.0000 	   46.0000 	   49.9092 
    1.9303 	   37.6260 	    2.0000 	   46.0000 	   49.9442 
    1.9455 	   37.6600 	    2.0000 	   46.0000 	   49.9782 
    2.0523 	   37.6960 	    2.0000 	   46.0000 	   50.0142 
    2.0218 	   37.7320 	    2.0000 	   46.0000 	   50.0502 
    2.0981 	   37.7690 	    2.0000 	   46.0000 	   50.0872 
    2.1134 	   37.8060 	    2.0000 	   46.0000 	   50.1242 
    1.8692 	   37.8430 	    2.0000 	   46.0000 	   50.1602 
    2.0218 	   37.8780 	    2.0000 	   46.0000 	   50.1963 
    1.9303 	   37.9140 	    2.0000 	   46.0000 	   50.2323 
    1.8997 	   37.9530 	    2.0000 	   46.0000 	   50.2713 
    1.9760 	   37.9860 	    2.0000 	   46.0000 	   50.3043 
    2.0066 	   38.0220 	    2.0000 	   46.0000 	   50.3403 
    2.0066 	   38.0570 	    2.0000 	   46.0000 	   50.3753 
    2.0371 	   38.0960 	    2.0000 	   46.0000 	   50.4143 
    2.1286 	   38.1310 	    2.0000 	   46.0000 	   50.4493 
    1.9913 	   38.1660 	    2.0000 	   46.0000 	   50.4843 
    1.9303 	   38.2020 	    2.0000 	   46.0000 	   50.5203 
    1.7166 	   38.2370 	    2.0000 	   46.0000 	   50.5553 
    1.9760 	   38.2720 	    2.0000 	   46.0000 	   50.5903 
    1.9760 	   38.3050 	    2.0000 	   46.0000 	   50.6233 
    2.1286 	   38.3370 	    2.0000 	   46.0000 	   50.6553 
    1.9150 	   38.3670 	    2.0000 	   46.0000 	   50.6853 
    2.0066 	   38.3990 	    2.0000 	   46.0000 	   50.7173 
    1.9760 	   38.4300 	    2.0000 	   46.0000 	   50.7483 
    2.1744 	   38.4640 	    2.0000 	   46.0000 	   50.7823 
    1.9608 	   38.4990 	    2.0000 	   46.0000 	   50.8173 
    2.0218 	   38.5350 	    2.0000 	   46.0000 	   50.8533 
    2.0676 	   38.5710 	    2.0000 	   46.0000 	   50.8893 
    1.9150 	   38.6060 	    2.0000 	   46.0000 	   50.9243 
    2.0371 	   38.6400 	    2.0000 	   46.0000 	   50.9583 
    1.6861 	   38.6740 	    2.0000 	   46.0000 	   50.9923 
    1.9760 	   38.7100 	    2.0000 	   46.0000 	   51.0283 
    2.0218 	   38.7450 	    2.0000 	   46.0000 	   51.0633 
    2.0066 	   38.7780 	    2.0000 	   46.0000 	   51.0963 
    2.0218 	   38.8090 	    2.0000 	   46.0000 	   51.1273 
    1.9760 	   38.8410 	    2.0000 	   46.0000 	   51.1593 
    1.9608 	   38.8720 	    2.0000 	   46.0000 	   51.1903 
    2.1897 	   38.9070 	    2.0000 	   46.0000 	   51.2253 
    1.9150 	   38.9430 	    2.0000 	   46.0000 	   51.2613 
    1.7472 	   38.9790 	    2.0000 	   46.0000 	   51.2973 
    2.1134 	   39.0130 	    2.0000 	   46.0000 	   51.3313 
    2.0371 	   39.0500 	    2.0000 	   46.0000 	   51.3683 
    2.0218 	   39.0890 	    2.0000 	   46.0000 	   51.4073 
    1.9150 	   39.1230 	    2.0000 	   46.0000 	   51.4413 
    1.9913 	   39.1600 	    2.0000 	   46.0000 	   51.4783 
    2.0066 	   39.1960 	    2.0000 	   46.0000 	   51.5143 
    2.0371 	   39.2330 	    2.0000 	   46.0000 	   51.5513 
    2.1439 	   39.2680 	    2.0000 	   46.0000 	   51.5863 
    1.9760 	   39.3030 	    2.0000 	   46.0000 	   51.6213 
    1.7014 	   39.3400 	    2.0000 	   46.0000 	   51.6583 
    2.0066 	   39.3720 	    2.0000 	   46.0000 	   51.6903 
    2.0371 	   39.4030 	    2.0000 	   46.0000 	   51.7213 
    2.1134 	   39.4350 	    2.0000 	   46.0000 	   51.7533 
    1.9608 	   39.4670 	    2.0000 	   46.0000 	   51.7853 
    1.9303 	   39.4990 	    2.0000 	   46.0000 	   51.8173 
    2.0066 	   39.5300 	    2.0000 	   46.0000 	   51.8483 
    1.9760 	   39.5620 	    2.0000 	   46.0000 	   51.8803 
    1.9608 	   39.5930 	    2.0000 	   46.0000 	   51.9114 
    1.9608 	   39.6270 	    2.0000 	   46.0000 	   51.9454 
    1.9913 	   39.6630 	    2.0000 	   46.0000 	   51.9804 
    2.0218 	   39.6990 	    2.0000 	   46.0000 	   52.0164 
    1.9760 	   39.7330 	    2.0000 	   46.0000 	   52.0504 
    2.0066 	   39.7690 	    2.0000 	   46.0000 	   52.0864 
    2.0523 	   39.8050 	    2.0000 	   46.0000 	   52.1224 
    1.8692 	   39.8400 	    2.0000 	   46.0000 	   52.1574 
    2.0676 	   39.8740 	    2.0000 	   46.0000 	   52.1914 
    1.6709 	   39.9110 	    2.0000 	   46.0000 	   52.2284 
    1.9760 	   39.9490 	    2.0000 	   46.0000 	   52.2664 
    2.0218 	   39.9850 	    2.0000 	   46.0000 	   52.3024 
    1.9150 	   40.0210 	    2.0000 	   46.0000 	   52.3384 
    2.0981 	   40.0570 	    2.0000 	   46.0000 	   52.3744 
    1.9150 	   40.0940 	    2.0000 	   46.0000 	   52.4114 
    2.0523 	   40.1310 	    2.0000 	   46.0000 	   52.4484 
    2.0523 	   40.1650 	    2.0000 	   46.0000 	   52.4824 
    2.0829 	   40.1950 	    2.0000 	   46.0000 	   52.5124 
    2.0676 	   40.2270 	    2.0000 	   46.0000 	   52.5444 
    1.8387 	   40.2600 	    2.0000 	   46.0000 	   52.5774 
    2.0829 	   40.2920 	    2.0000 	   46.0000 	   52.6094 
    2.0829 	   40.3250 	    2.0000 	   46.0000 	   52.6424 
    1.9913 	   40.3570 	    2.0000 	   46.0000 	   52.6744 
    1.9150 	   40.3880 	    2.0000 	   46.0000 	   52.7054 
    1.9760 	   40.4190 	    2.0000 	   46.0000 	   52.7364 
    1.9760 	   40.4520 	    2.0000 	   46.0000 	   52.7694 
    1.9608 	   40.4880 	    2.0000 	   46.0000 	   52.8054 
    2.0523 	   40.5240 	    2.0000 	   46.0000 	   52.8414 
    1.8387 	   40.5600 	    2.0000 	   46.0000 	   52.8774 
    2.0829 	   40.5950 	    2.0000 	   46.0000 	   52.9124 
    2.0523 	   40.6340 	    2.0000 	   46.0000 	   52.9514 
    1.9303 	   40.6690 	    2.0000 	   46.0000 	   52.9864 
    1.9150 	   40.7050 	    2.0000 	   46.0000 	   53.0224 
    2.0371 	   40.7420 	    2.0000 	   46.0000 	   53.0594 
    1.8540 	   40.7780 	    2.0000 	   46.0000 	   53.0954 
    1.7624 	   40.8120 	    2.0000 	   46.0000 	   53.1294 
    1.9150 	   40.8480 	    2.0000 	   46.0000 	   53.1654 
    1.8997 	   40.8830 	    2.0000 	   46.0000 	   53.2004 
    2.1439 	   40.9160 	    2.0000 	   46.0000 	   53.2334 
    2.0829 	   40.9490 	    2.0000 	   46.0000 	   53.2664 
    2.1286 	   40.9810 	    2.0000 	   46.0000 	   53.2984 
    2.0371 	   41.0120 	    2.0000 	   46.0000 	   53.3294 
    2.0218 	   41.0450 	    2.0000 	   46.0000 	   53.3624 
    2.0523 	   41.0790 	    2.0000 	   46.0000 	   53.3964 
    1.9455 	   41.1110 	    2.0000 	   46.0000 	   53.4284 
    1.9760 	   41.1440 	    2.0000 	   46.0000 	   53.4614 
    2.1439 	   41.1770 	    2.0000 	   46.0000 	   53.4944 
    2.0981 	   41.2090 	    2.0000 	   46.0000 	   53.5264 
    1.9150 	   41.2400 	    2.0000 	   46.0000 	   53.5574 
    2.0066 	   41.2720 	    2.0000 	   46.0000 	   53.5894 
    1.8387 	   41.3050 	    2.0000 	   46.0000 	   53.6224 
    1.9455 	   41.3410 	    2.0000 	   46.0000 	   53.6585 
    1.9303 	   41.3730 	    2.0000 	   46.0000 	   53.6905 
    2.0066 	   41.4050 	    2.0000 	   46.0000 	   53.7225 
    2.1744 	   41.4420 	    2.0000 	   46.0000 	   53.7595 
    2.0523 	   41.4760 	    2.0000 	   46.0000 	   53.7935 
    2.0676 	   41.5100 	    2.0000 	   46.0000 	   53.8275 
    1.9608 	   41.5450 	    2.0000 	   46.0000 	   53.8625 
    1.8845 	   41.5840 	    2.0000 	   46.0000 	   53.9015 
    1.9608 	   41.6170 	    2.0000 	   46.0000 	   53.9345 
    1.9608 	   41.6540 	    2.0000 	   46.0000 	   53.9715 
    2.0066 	   41.6900 	    2.0000 	   46.0000 	   54.0075 
    1.9455 	   41.7250 	    2.0000 	   46.0000 	   54.0425 
    2.0218 	   41.7600 	    2.0000 	   46.0000 	   54.0775 
    2.0371 	   41.7950 	    2.0000 	   46.0000 	   54.1125 
    1.9760 	   41.8320 	    2.0000 	   46.0000 	   54.1495 
    2.0676 	   41.8640 	    2.0000 	   46.0000 	   54.1815 
    1.9150 	   41.9000 	    2.0000 	   46.0000 	   54.2175 
    1.8997 	   41.9350 	    2.0000 	   46.0000 	   54.2525 
    1.8997 	   41.9700 	    2.0000 	   46.0000 	   54.2875 
    1.9303 	   42.0060 	    2.0000 	   46.0000 	   54.3235 
    1.9303 	   42.0400 	    2.0000 	   46.0000 	   54.3575 
    1.9608 	   42.0810 	    2.0000 	   46.0000 	   54.3985 
    2.0066 	   42.1150 	    2.0000 	   46.0000 	   54.4325 
    1.9150 	   42.1510 	    2.0000 	   46.0000 	   54.4685 
    1.8845 	   42.1860 	    2.0000 	   46.0000 	   54.5035 
    1.6403 	   42.2220 	    2.0000 	   46.0000 	   54.5395 
    2.0218 	   42.2570 	    2.0000 	   46.0000 	   54.5745 
    2.0066 	   42.2930 	    2.0000 	   46.0000 	   54.6105 
    1.8692 	   42.3300 	    2.0000 	   46.0000 	   54.6475 
    2.0218 	   42.3680 	    2.0000 	   46.0000 	   54.6855 
    1.9150 	   42.4040 	    2.0000 	   46.0000 	   54.7215 
    1.9150 	   42.4410 	    2.0000 	   46.0000 	   54.7585 
    1.8997 	   42.4780 	    2.0000 	   46.0000 	   54.7955 
    1.9303 	   42.5130 	    2.0000 	   46.0000 	   54.8305 
    1.5640 	   42.5500 	    2.0000 	   46.0000 	   54.8675 
    1.9608 	   42.5860 	    2.0000 	   46.0000 	   54.9035 
    1.9608 	   42.6190 	    2.0000 	   46.0000 	   54.9365 
    1.9303 	   42.6560 	    2.0000 	   46.0000 	   54.9735 
    1.8082 	   42.6920 	    2.0000 	   46.0000 	   55.0095 
    1.9760 	   42.7250 	    2.0000 	   46.0000 	   55.0425 
    1.9760 	   42.7620 	    2.0000 	   46.0000 	   55.0795 
    1.9303 	   42.7990 	    2.0000 	   46.0000 	   55.1165 
    1.9913 	   42.8340 	    2.0000 	   46.0000 	   55.1515 
    2.0523 	   42.8700 	    2.0000 	   46.0000 	   55.1875 
    1.9150 	   42.9070 	    2.0000 	   46.0000 	   55.2245 
    2.0066 	   42.9430 	    2.0000 	   46.0000 	   55.2605 
    1.9608 	   42.9790 	    2.0000 	   46.0000 	   55.2965 
    1.9608 	   43.0160 	    2.0000 	   46.0000 	   55.3335 
    1.9455 	   43.0510 	    2.0000 	   46.0000 	   55.3685 
    1.9608 	   43.0910 	    2.0000 	   46.0000 	   55.4086 
    1.9760 	   43.1270 	    2.0000 	   46.0000 	   55.4445 
    1.9913 	   43.1630 	    2.0000 	   46.0000 	   55.4806 
    1.9455 	   43.1990 	    2.0000 	   46.0000 	   55.5166 
    1.9760 	   43.2350 	    2.0000 	   46.0000 	   55.5526 
    1.9303 	   43.2730 	    2.0000 	   46.0000 	   55.5906 
    2.0676 	   43.3100 	    2.0000 	   46.0000 	   55.6276 
    2.0981 	   43.3460 	    2.0000 	   46.0000 	   55.6636 
    2.0981 	   43.3830 	    2.0000 	   46.0000 	   55.7006 
    2.0829 	   43.4210 	    2.0000 	   46.0000 	   55.7386 
    1.9455 	   43.4560 	    2.0000 	   46.0000 	   55.7736 
    1.6556 	   43.4920 	    2.0000 	   46.0000 	   55.8096 
    1.9760 	   43.5280 	    2.0000 	   46.0000 	   55.8456 
    2.0218 	   43.5640 	    2.0000 	   46.0000 	   55.8816 
    1.8845 	   43.6000 	    2.0000 	   46.0000 	   55.9176 
    1.9150 	   43.6370 	    2.0000 	   46.0000 	   55.9546 
    2.1592 	   43.6720 	    2.0000 	   46.0000 	   55.9896 
    2.0066 	   43.7090 	    2.0000 	   46.0000 	   56.0266 
    1.9608 	   43.7440 	    2.0000 	   46.0000 	   56.0616 
    1.9913 	   43.7800 	    2.0000 	   46.0000 	   56.0976 
    2.0829 	   43.8130 	    2.0000 	   46.0000 	   56.1306 
    1.9608 	   43.8460 	    2.0000 	   46.0000 	   56.1636 
    1.9455 	   43.8780 	    2.0000 	   46.0000 	   56.1956 
    1.9913 	   43.9110 	    2.0000 	   46.0000 	   56.2286 
    1.9913 	   43.9420 	    2.0000 	   46.0000 	   56.2596 
    1.9608 	   43.9750 	    2.0000 	   46.0000 	   56.2926 
    1.9303 	   44.0080 	    2.0000 	   46.0000 	   56.3256 
    2.0676 	   44.0400 	    2.0000 	   46.0000 	   56.3576 
    1.9760 	   44.0760 	    2.0000 	   46.0000 	   56.3936 
    2.0371 	   44.1130 	    2.0000 	   46.0000 	   56.4306 
    2.0218 	   44.1500 	    2.0000 	   46.0000 	   56.4676 
    2.1744 	   44.1860 	    2.0000 	   46.0000 	   56.5036 
    2.0218 	   44.2240 	    2.0000 	   46.0000 	   56.5416 
    1.9913 	   44.2620 	    2.0000 	   46.0000 	   56.5796 
    1.9608 	   44.2980 	    2.0000 	   46.0000 	   56.6156 
    2.0676 	   44.3350 	    2.0000 	   46.0000 	   56.6526 
    1.8235 	   44.3710 	    2.0000 	   46.0000 	   56.6886 
    1.9303 	   44.4080 	    2.0000 	   46.0000 	   56.7256 
    1.9608 	   44.4450 	    2.0000 	   46.0000 	   56.7626 
    1.8845 	   44.4810 	    2.0000 	   46.0000 	   56.7986 
    2.0218 	   44.5220 	    2.0000 	   46.0000 	   56.8396 
    1.9913 	   44.5580 	    2.0000 	   46.0000 	   56.8756 
    2.0676 	   44.5930 	    2.0000 	   46.0000 	   56.9106 
    2.0829 	   44.6300 	    2.0000 	   46.0000 	   56.9476 
    2.0066 	   44.6680 	    2.0000 	   46.0000 	   56.9856 
    2.0371 	   44.7050 	    2.0000 	   46.0000 	   57.0226 
    2.1134 	   44.7430 	    2.0000 	   46.0000 	   57.0606 
    1.6403 	   44.7810 	    2.0000 	   46.0000 	   57.0986 
    1.7929 	   44.8180 	    2.0000 	   46.0000 	   57.1356 
    1.9150 	   44.8520 	    2.0000 	   46.0000 	   57.1697 
    2.0218 	   44.8880 	    2.0000 	   46.0000 	   57.2057 
    1.9608 	   44.9240 	    2.0000 	   46.0000 	   57.2417 
    2.1744 	   44.9600 	    2.0000 	   46.0000 	   57.2777 
    2.0066 	   44.9950 	    2.0000 	   46.0000 	   57.3127 
    2.0981 	   45.0320 	    2.0000 	   46.0000 	   57.3497 
    1.9760 	   45.0690 	    2.0000 	   46.0000 	   57.3867 
    1.9303 	   45.1090 	    2.0000 	   46.0000 	   57.4267 
    2.0066 	   45.1460 	    2.0000 	   46.0000 	   57.4637 
    1.9608 	   45.1820 	    2.0000 	   46.0000 	   57.4997 
    2.0523 	   45.2180 	    2.0000 	   46.0000 	   57.5357 
    1.9455 	   45.2540 	    2.0000 	   46.0000 	   57.5717 
    1.9760 	   45.2900 	    2.0000 	   46.0000 	   57.6077 
    1.8997 	   45.3410 	    2.0000 	   46.0000 	   57.6587 
    1.8997 	   45.3730 	    2.0000 	   46.0000 	   57.6907 
    2.0981 	   45.4120 	    2.0000 	   46.0000 	   57.7297 
    1.9150 	   45.4490 	    2.0000 	   46.0000 	   57.7667 
    1.9150 	   45.4860 	    2.0000 	   46.0000 	   57.8037 
    1.8387 	   45.5210 	    2.0000 	   46.0000 	   57.8387 
    2.0523 	   45.5580 	    2.0000 	   46.0000 	   57.8757 
    1.7929 	   45.5950 	    2.0000 	   46.0000 	   57.9127 
    2.0981 	   45.6290 	    2.0000 	   46.0000 	   57.9467 
    2.0523 	   45.6620 	    2.0000 	   46.0000 	   57.9797 
    1.8997 	   45.6940 	    2.0000 	   46.0000 	   58.0117 
    2.0066 	   45.7270 	    2.0000 	   46.0000 	   58.0447 
    2.2049 	   45.7600 	    2.0000 	   46.0000 	   58.0777 
    1.9608 	   45.7920 	    2.0000 	   46.0000 	   58.1097 
    2.0218 	   45.8260 	    2.0000 	   46.0000 	   58.1437 
    2.0066 	   45.8590 	    2.0000 	   46.0000 	   58.1767 
    2.0676 	   45.8920 	    2.0000 	   46.0000 	   58.2097 
    2.0218 	   45.9240 	    2.0000 	   46.0000 	   58.2417 
    1.9150 	   45.9570 	    2.0000 	   46.0000 	   58.2747 
    1.9455 	   45.9900 	    2.0000 	   46.0000 	   58.3077 
    2.0371 	   46.0230 	    2.0000 	   46.0000 	   58.3407 
    1.8997 	   46.0550 	    2.0000 	   46.0000 	   58.3727 
    1.9608 	   46.0920 	    2.0000 	   46.0000 	   58.4097 
    1.8235 	   46.1230 	    2.0000 	   46.0000 	   58.4407 
    1.9608 	   46.1570 	    2.0000 	   46.0000 	   58.4747 
    2.2202 	   46.1880 	    2.0000 	   46.0000 	   58.5057 
    1.9608 	   46.2230 	    2.0000 	   46.0000 	   58.5407 
    2.0066 	   46.2590 	    2.0000 	   46.0000 	   58.5767 
    2.1286 	   46.2940 	    2.0000 	   46.0000 	   58.6117 
    1.9455 	   46.3300 	    2.0000 	   46.0000 	   58.6477 
    1.9913 	   46.3680 	    2.0000 	   46.0000 	   58.6857 
    1.9913 	   46.4030 	    2.0000 	   46.0000 	   58.7207 
    1.9303 	   46.4400 	    2.0000 	   46.0000 	   58.7577 
    1.9455 	   46.4760 	    2.0000 	   46.0000 	   58.7937 
    2.1134 	   46.5160 	    2.0000 	   46.0000 	   58.8337 
    1.9303 	   46.5550 	    2.0000 	   46.0000 	   58.8727 
    2.0066 	   46.5910 	    2.0000 	   46.0000 	   58.9087 
    2.0523 	   46.6290 	    2.0000 	   46.0000 	   58.9468 
    1.9303 	   46.6660 	    2.0000 	   46.0000 	   58.9838 
    2.0829 	   46.7030 	    2.0000 	   46.0000 	   59.0208 
    1.9303 	   46.7410 	    2.0000 	   46.0000 	   59.0588 
    1.9608 	   46.7770 	    2.0000 	   46.0000 	   59.0948 
    1.9303 	   46.8130 	    2.0000 	   46.0000 	   59.1308 
    2.0523 	   46.8490 	    2.0000 	   46.0000 	   59.1668 
    1.8845 	   46.8850 	    2.0000 	   46.0000 	   59.2028 
    2.0218 	   46.9190 	    2.0000 	   46.0000 	   59.2368 
    1.9303 	   46.9560 	    2.0000 	   46.0000 	   59.2738 
    1.9760 	   46.9910 	    2.0000 	   46.0000 	   59.3088 
    1.9760 	   47.0270 	    2.0000 	   46.0000 	   59.3448 
    1.9760 	   47.0620 	    2.0000 	   46.0000 	   59.3798 
    1.9455 	   47.1000 	    2.0000 	   46.0000 	   59.4178 
    2.0066 	   47.1350 	    2.0000 	   46.0000 	   59.4528 
    2.1286 	   47.1720 	    2.0000 	   46.0000 	   59.4898 
    2.0218 	   47.2070 	    2.0000 	   46.0000 	   59.5248 
    2.0523 	   47.2440 	    2.0000 	   46.0000 	   59.5618 
    2.0523 	   47.2800 	    2.0000 	   46.0000 	   59.5978 
    2.0066 	   47.3150 	    2.0000 	   46.0000 	   59.6328 
    2.0676 	   47.3520 	    2.0000 	   46.0000 	   59.6698 
    1.9608 	   47.3890 	    2.0000 	   46.0000 	   59.7068 
    2.0523 	   47.4270 	    2.0000 	   46.0000 	   59.7448 
    1.9608 	   47.4630 	    2.0000 	   46.0000 	   59.7808 
    1.9150 	   47.5010 	    2.0000 	   46.0000 	   59.8188 
    2.0676 	   47.5380 	    2.0000 	   46.0000 	   59.8558 
    1.9608 	   47.5740 	    2.0000 	   46.0000 	   59.8918 
    1.8692 	   47.6120 	    2.0000 	   46.0000 	   59.9298 
    1.9608 	   47.6470 	    2.0000 	   46.0000 	   59.9648 
    1.8387 	   47.6850 	    2.0000 	   47.0000 	    0.0028 
    1.8692 	   47.7230 	    2.0000 	   47.0000 	    0.0408 
    2.0676 	   47.7590 	    2.0000 	   47.0000 	    0.0768 
    2.0371 	   47.7940 	    2.0000 	   47.0000 	    0.1118 
    2.1592 	   47.8290 	    2.0000 	   47.0000 	    0.1468 
    1.9455 	   47.8610 	    2.0000 	   47.0000 	    0.1788 
    2.1897 	   47.8970 	    2.0000 	   47.0000 	    0.2148 
    2.0066 	   47.9330 	    2.0000 	   47.0000 	    0.2508 
    2.0066 	   47.9700 	    2.0000 	   47.0000 	    0.2878 
    1.9303 	   48.0070 	    2.0000 	   47.0000 	    0.3248 
    2.0371 	   48.0440 	    2.0000 	   47.0000 	    0.3618 
    1.8845 	   48.0840 	    2.0000 	   47.0000 	    0.4018 
    2.0066 	   48.1220 	    2.0000 	   47.0000 	    0.4398 
    1.9608 	   48.1580 	    2.0000 	   47.0000 	    0.4758 
    2.0066 	   48.1920 	    2.0000 	   47.0000 	    0.5098 
    1.9455 	   48.2280 	    2.0000 	   47.0000 	    0.5458 
    1.9608 	   48.2650 	    2.0000 	   47.0000 	    0.5828 
    1.9455 	   48.3020 	    2.0000 	   47.0000 	    0.6198 
    2.0523 	   48.3380 	    2.0000 	   47.0000 	    0.6558 
    1.8845 	   48.3760 	    2.0000 	   47.0000 	    0.6939 
    1.9760 	   48.4140 	    2.0000 	   47.0000 	    0.7319 
    1.8997 	   48.4520 	    2.0000 	   47.0000 	    0.7699 
    2.0523 	   48.4900 	    2.0000 	   47.0000 	    0.8079 
    2.0218 	   48.5250 	    2.0000 	   47.0000 	    0.8419 
    2.0218 	   48.5620 	    2.0000 	   47.0000 	    0.8799 
    2.0371 	   48.5980 	    2.0000 	   47.0000 	    0.9159 
    2.0981 	   48.6360 	    2.0000 	   47.0000 	    0.9539 
    2.0676 	   48.6730 	    2.0000 	   47.0000 	    0.9909 
    1.9913 	   48.7110 	    2.0000 	   47.0000 	    1.0289 
    1.8692 	   48.7490 	    2.0000 	   47.0000 	    1.0669 
    1.8845 	   48.7890 	    2.0000 	   47.0000 	    1.1069 
    1.9303 	   48.8260 	    2.0000 	   47.0000 	    1.1439 
    2.1439 	   48.8670 	    2.0000 	   47.0000 	    1.1839 
    1.9608 	   48.9030 	    2.0000 	   47.0000 	    1.2209 
    1.8692 	   48.9420 	    2.0000 	   47.0000 	    1.2599 
    2.0676 	   48.9810 	    2.0000 	   47.0000 	    1.2989 
    2.0829 	   49.0180 	    2.0000 	   47.0000 	    1.3359 
    1.8387 	   49.0560 	    2.0000 	   47.0000 	    1.3739 
    2.0066 	   49.0980 	    2.0000 	   47.0000 	    1.4159 
    1.9455 	   49.1340 	    2.0000 	   47.0000 	    1.4519 
    1.9455 	   49.1700 	    2.0000 	   47.0000 	    1.4879 
    2.1439 	   49.2080 	    2.0000 	   47.0000 	    1.5259 
    2.0829 	   49.2450 	    2.0000 	   47.0000 	    1.5629 
    2.0066 	   49.2810 	    2.0000 	   47.0000 	    1.5989 
    2.1134 	   49.3160 	    2.0000 	   47.0000 	    1.6339 
    2.0981 	   49.3560 	    2.0000 	   47.0000 	    1.6739 
    2.0523 	   49.3950 	    2.0000 	   47.0000 	    1.7129 
    2.1134 	   49.4330 	    2.0000 	   47.0000 	    1.7509 
    1.9303 	   49.4700 	    2.0000 	   47.0000 	    1.7879 
    1.9455 	   49.5040 	    2.0000 	   47.0000 	    1.8219 
    1.9913 	   49.5370 	    2.0000 	   47.0000 	    1.8549 
    2.0523 	   49.5700 	    2.0000 	   47.0000 	    1.8879 
    2.1439 	   49.6030 	    2.0000 	   47.0000 	    1.9209 
    1.9455 	   49.6380 	    2.0000 	   47.0000 	    1.9559 
    2.1897 	   49.6730 	    2.0000 	   47.0000 	    1.9909 
    1.9608 	   49.7070 	    2.0000 	   47.0000 	    2.0249 
    1.8540 	   49.7410 	    2.0000 	   47.0000 	    2.0589 
    2.0218 	   49.7740 	    2.0000 	   47.0000 	    2.0919 
    1.9150 	   49.8060 	    2.0000 	   47.0000 	    2.1239 
    1.6709 	   49.8430 	    2.0000 	   47.0000 	    2.1609 
    2.0676 	   49.8780 	    2.0000 	   47.0000 	    2.1959 
    2.0218 	   49.9120 	    2.0000 	   47.0000 	    2.2299 
    1.9303 	   49.9460 	    2.0000 	   47.0000 	    2.2639 
    1.9760 	   49.9790 	    2.0000 	   47.0000 	    2.2969 
    1.8997 	   50.0130 	    2.0000 	   47.0000 	    2.3309 
    1.9608 	   50.0460 	    2.0000 	   47.0000 	    2.3639 
    2.0676 	   50.0830 	    2.0000 	   47.0000 	    2.4009 
    2.0371 	   50.1160 	    2.0000 	   47.0000 	    2.4340 
    1.8845 	   50.1530 	    2.0000 	   47.0000 	    2.4710 
    1.7014 	   50.1880 	    2.0000 	   47.0000 	    2.5060 
    1.8540 	   50.2220 	    2.0000 	   47.0000 	    2.5400 
    1.9608 	   50.2570 	    2.0000 	   47.0000 	    2.5750 
    1.8540 	   50.2910 	    2.0000 	   47.0000 	    2.6090 
    1.9608 	   50.3290 	    2.0000 	   47.0000 	    2.6470 
    1.9608 	   50.3670 	    2.0000 	   47.0000 	    2.6850 
    2.0523 	   50.4050 	    2.0000 	   47.0000 	    2.7230 
    1.8692 	   50.4410 	    2.0000 	   47.0000 	    2.7590 
    2.0523 	   50.4790 	    2.0000 	   47.0000 	    2.7970 
    1.9913 	   50.5150 	    2.0000 	   47.0000 	    2.8330 
    2.0371 	   50.5550 	    2.0000 	   47.0000 	    2.8730 
    2.0523 	   50.5930 	    2.0000 	   47.0000 	    2.9110 
    1.6556 	   50.6260 	    2.0000 	   47.0000 	    2.9440 
    1.8997 	   50.6590 	    2.0000 	   47.0000 	    2.9770 
    2.0981 	   50.6960 	    2.0000 	   47.0000 	    3.0140 
    1.7624 	   50.7300 	    2.0000 	   47.0000 	    3.0480 
    1.7319 	   50.7630 	    2.0000 	   47.0000 	    3.0810 
    1.8845 	   50.7980 	    2.0000 	   47.0000 	    3.1160 
    1.9303 	   50.8370 	    2.0000 	   47.0000 	    3.1550 
    2.0066 	   50.8730 	    2.0000 	   47.0000 	    3.1910 
    2.0981 	   50.9130 	    2.0000 	   47.0000 	    3.2310 
    1.9913 	   50.9510 	    2.0000 	   47.0000 	    3.2690 
    2.0676 	   50.9890 	    2.0000 	   47.0000 	    3.3070 
    1.9608 	   51.0270 	    2.0000 	   47.0000 	    3.3450 
    1.9760 	   51.0650 	    2.0000 	   47.0000 	    3.3830 
    2.0218 	   51.1070 	    2.0000 	   47.0000 	    3.4250 
    1.9150 	   51.1440 	    2.0000 	   47.0000 	    3.4620 
    1.9150 	   51.1800 	    2.0000 	   47.0000 	    3.4980 
    2.0066 	   51.2190 	    2.0000 	   47.0000 	    3.5370 
    2.0371 	   51.2560 	    2.0000 	   47.0000 	    3.5740 
    1.8387 	   51.2940 	    2.0000 	   47.0000 	    3.6120 
    1.9303 	   51.3400 	    2.0000 	   47.0000 	    3.6580 
    2.0829 	   51.3730 	    2.0000 	   47.0000 	    3.6910 
    1.8235 	   51.4060 	    2.0000 	   47.0000 	    3.7240 
    2.0066 	   51.4400 	    2.0000 	   47.0000 	    3.7580 
    1.8997 	   51.4740 	    2.0000 	   47.0000 	    3.7920 
    1.9455 	   51.5080 	    2.0000 	   47.0000 	    3.8260 
    2.0066 	   51.5410 	    2.0000 	   47.0000 	    3.8590 
    1.9913 	   51.5740 	    2.0000 	   47.0000 	    3.8920 
    2.1134 	   51.6110 	    2.0000 	   47.0000 	    3.9290 
    2.0066 	   51.6450 	    2.0000 	   47.0000 	    3.9630 
    1.9455 	   51.6790 	    2.0000 	   47.0000 	    3.9970 
    1.9150 	   51.7120 	    2.0000 	   47.0000 	    4.0300 
    1.8692 	   51.7450 	    2.0000 	   47.0000 	    4.0630 
    1.8997 	   51.7780 	    2.0000 	   47.0000 	    4.0960 
    1.9760 	   51.8120 	    2.0000 	   47.0000 	    4.1300 
    2.0218 	   51.8460 	    2.0000 	   47.0000 	    4.1641 
    2.0218 	   51.8800 	    2.0000 	   47.0000 	    4.1981 
    1.9760 	   51.9180 	    2.0000 	   47.0000 	    4.2361 
    1.9760 	   51.9590 	    2.0000 	   47.0000 	    4.2771 
    1.9455 	   51.9960 	    2.0000 	   47.0000 	    4.3141 
    2.0981 	   52.0330 	    2.0000 	   47.0000 	    4.3511 
    1.9150 	   52.0720 	    2.0000 	   47.0000 	    4.3901 
    1.9608 	   52.1120 	    2.0000 	   47.0000 	    4.4301 
    1.9913 	   52.1500 	    2.0000 	   47.0000 	    4.4681 
    1.9303 	   52.1880 	    2.0000 	   47.0000 	    4.5061 
    2.0218 	   52.2250 	    2.0000 	   47.0000 	    4.5431 
    2.0676 	   52.2620 	    2.0000 	   47.0000 	    4.5801 
    1.9760 	   52.2990 	    2.0000 	   47.0000 	    4.6171 
    1.9913 	   52.3360 	    2.0000 	   47.0000 	    4.6541 
    2.0218 	   52.3710 	    2.0000 	   47.0000 	    4.6891 
    1.8692 	   52.4100 	    2.0000 	   47.0000 	    4.7281 
    1.9150 	   52.4500 	    2.0000 	   47.0000 	    4.7681 
    1.8692 	   52.4900 	    2.0000 	   47.0000 	    4.8081 
    2.1286 	   52.5290 	    2.0000 	   47.0000 	    4.8471 
    2.0218 	   52.5670 	    2.0000 	   47.0000 	    4.8851 
    1.9303 	   52.6060 	    2.0000 	   47.0000 	    4.9241 
    1.9608 	   52.6410 	    2.0000 	   47.0000 	    4.9591 
    2.0371 	   52.6790 	    2.0000 	   47.0000 	    4.9971 
    1.9608 	   52.7180 	    2.0000 	   47.0000 	    5.0361 
    1.9303 	   52.7550 	    2.0000 	   47.0000 	    5.0731 
    1.9150 	   52.7930 	    2.0000 	   47.0000 	    5.1111 
    2.0676 	   52.8330 	    2.0000 	   47.0000 	    5.1511 
    1.8692 	   52.8700 	    2.0000 	   47.0000 	    5.1881 
    1.8845 	   52.9090 	    2.0000 	   47.0000 	    5.2271 
    1.9608 	   52.9470 	    2.0000 	   47.0000 	    5.2651 
    1.8540 	   52.9860 	    2.0000 	   47.0000 	    5.3041 
    2.1134 	   53.0230 	    2.0000 	   47.0000 	    5.3411 
    2.0066 	   53.0630 	    2.0000 	   47.0000 	    5.3811 
    2.1134 	   53.1060 	    2.0000 	   47.0000 	    5.4241 
    1.9303 	   53.1430 	    2.0000 	   47.0000 	    5.4601 
    1.8692 	   53.1810 	    2.0000 	   47.0000 	    5.4981 
    1.8387 	   53.2160 	    2.0000 	   47.0000 	    5.5341 
    2.0066 	   53.2550 	    2.0000 	   47.0000 	    5.5731 
    1.9913 	   53.2930 	    2.0000 	   47.0000 	    5.6111 
    1.9150 	   53.3400 	    2.0000 	   47.0000 	    5.6581 
    1.8235 	   53.3780 	    2.0000 	   47.0000 	    5.6961 
    1.9760 	   53.4180 	    2.0000 	   47.0000 	    5.7361 
    1.6251 	   53.4570 	    2.0000 	   47.0000 	    5.7751 
    1.9760 	   53.4920 	    2.0000 	   47.0000 	    5.8101 
    1.9303 	   53.5300 	    2.0000 	   47.0000 	    5.8481 
    1.9150 	   53.5680 	    2.0000 	   47.0000 	    5.8861 
    1.9150 	   53.6060 	    2.0000 	   47.0000 	    5.9242 
    1.9760 	   53.6410 	    2.0000 	   47.0000 	    5.9592 
    1.8692 	   53.6780 	    2.0000 	   47.0000 	    5.9952 
    2.0676 	   53.7180 	    2.0000 	   47.0000 	    6.0362 
    2.0218 	   53.7560 	    2.0000 	   47.0000 	    6.0742 
    1.9303 	   53.7920 	    2.0000 	   47.0000 	    6.1102 
    1.9150 	   53.8290 	    2.0000 	   47.0000 	    6.1472 
    1.9303 	   53.8620 	    2.0000 	   47.0000 	    6.1802 
    1.9455 	   53.8980 	    2.0000 	   47.0000 	    6.2162 
    2.0066 	   53.9330 	    2.0000 	   47.0000 	    6.2512 
    1.9455 	   53.9660 	    2.0000 	   47.0000 	    6.2842 
    1.9760 	   54.0020 	    2.0000 	   47.0000 	    6.3202 
    1.7777 	   54.0390 	    2.0000 	   47.0000 	    6.3572 
    2.0066 	   54.0790 	    2.0000 	   47.0000 	    6.3972 
    2.0523 	   54.1160 	    2.0000 	   47.0000 	    6.4342 
    1.6251 	   54.1540 	    2.0000 	   47.0000 	    6.4722 
    1.9303 	   54.1920 	    2.0000 	   47.0000 	    6.5102 
    1.9913 	   54.2290 	    2.0000 	   47.0000 	    6.5472 
    2.0676 	   54.2670 	    2.0000 	   47.0000 	    6.5852 
    1.8540 	   54.3030 	    2.0000 	   47.0000 	    6.6212 
    1.7166 	   54.3410 	    2.0000 	   47.0000 	    6.6592 
    2.0676 	   54.3780 	    2.0000 	   47.0000 	    6.6962 
    1.9760 	   54.4160 	    2.0000 	   47.0000 	    6.7342 
    2.0981 	   54.4550 	    2.0000 	   47.0000 	    6.7732 
    2.0981 	   54.4930 	    2.0000 	   47.0000 	    6.8112 
    1.9150 	   54.5300 	    2.0000 	   47.0000 	    6.8482 
    1.8082 	   54.5700 	    2.0000 	   47.0000 	    6.8882 
    2.0676 	   54.6070 	    2.0000 	   47.0000 	    6.9252 
    1.9760 	   54.6430 	    2.0000 	   47.0000 	    6.9612 
    1.8997 	   54.6830 	    2.0000 	   47.0000 	    7.0012 
    1.7472 	   54.7220 	    2.0000 	   47.0000 	    7.0402 
    2.0371 	   54.7610 	    2.0000 	   47.0000 	    7.0792 
    2.0523 	   54.7980 	    2.0000 	   47.0000 	    7.1162 
    1.8692 	   54.8370 	    2.0000 	   47.0000 	    7.1552 
    1.8997 	   54.8750 	    2.0000 	   47.0000 	    7.1932 
    1.9150 	   54.9150 	    2.0000 	   47.0000 	    7.2332 
    2.0066 	   54.9540 	    2.0000 	   47.0000 	    7.2722 
    2.0218 	   54.9930 	    2.0000 	   47.0000 	    7.3112 
    1.9608 	   55.0280 	    2.0000 	   47.0000 	    7.3462 
    2.0218 	   55.0680 	    2.0000 	   47.0000 	    7.3862 
    1.8845 	   55.1100 	    2.0000 	   47.0000 	    7.4282 
    1.8845 	   55.1480 	    2.0000 	   47.0000 	    7.4662 
    1.8540 	   55.1860 	    2.0000 	   47.0000 	    7.5042 
    1.9608 	   55.2240 	    2.0000 	   47.0000 	    7.5422 
    2.0066 	   55.2610 	    2.0000 	   47.0000 	    7.5792 
    2.0981 	   55.3000 	    2.0000 	   47.0000 	    7.6182 
    1.9455 	   55.3400 	    2.0000 	   47.0000 	    7.6583 
    1.8235 	   55.3790 	    2.0000 	   47.0000 	    7.6973 
    1.9760 	   55.4170 	    2.0000 	   47.0000 	    7.7353 
    1.8997 	   55.4530 	    2.0000 	   47.0000 	    7.7713 
    1.9760 	   55.4920 	    2.0000 	   47.0000 	    7.8103 
    1.8692 	   55.5300 	    2.0000 	   47.0000 	    7.8483 
    1.8235 	   55.5690 	    2.0000 	   47.0000 	    7.8873 
    1.8540 	   55.6080 	    2.0000 	   47.0000 	    7.9263 
    2.0066 	   55.6450 	    2.0000 	   47.0000 	    7.9633 
    1.7777 	   55.6850 	    2.0000 	   47.0000 	    8.0033 
    1.9913 	   55.7220 	    2.0000 	   47.0000 	    8.0403 
    1.8387 	   55.7610 	    2.0000 	   47.0000 	    8.0793 
    2.0218 	   55.7990 	    2.0000 	   47.0000 	    8.1173 
    1.9455 	   55.8370 	    2.0000 	   47.0000 	    8.1553 
    1.9303 	   55.8790 	    2.0000 	   47.0000 	    8.1973 
    2.0066 	   55.9170 	    2.0000 	   47.0000 	    8.2353 
    1.9150 	   55.9540 	    2.0000 	   47.0000 	    8.2723 
    1.8997 	   55.9940 	    2.0000 	   47.0000 	    8.3123 
    1.9760 	   56.0300 	    2.0000 	   47.0000 	    8.3483 
    1.7624 	   56.0700 	    2.0000 	   47.0000 	    8.3883 
    2.0218 	   56.1110 	    2.0000 	   47.0000 	    8.4293 
    2.0829 	   56.1500 	    2.0000 	   47.0000 	    8.4683 
    2.0829 	   56.1880 	    2.0000 	   47.0000 	    8.5063 
    2.0066 	   56.2280 	    2.0000 	   47.0000 	    8.5463 
    1.9150 	   56.2670 	    2.0000 	   47.0000 	    8.5853 
    1.9608 	   56.3050 	    2.0000 	   47.0000 	    8.6233 
    1.6403 	   56.3430 	    2.0000 	   47.0000 	    8.6613 
    1.9303 	   56.3820 	    2.0000 	   47.0000 	    8.7003 
    1.8845 	   56.4190 	    2.0000 	   47.0000 	    8.7373 
    1.9303 	   56.4600 	    2.0000 	   47.0000 	    8.7783 
    1.9760 	   56.4960 	    2.0000 	   47.0000 	    8.8143 
    1.8845 	   56.5290 	    2.0000 	   47.0000 	    8.8473 
    1.7319 	   56.5660 	    2.0000 	   47.0000 	    8.8843 
    1.9913 	   56.6050 	    2.0000 	   47.0000 	    8.9233 
    2.1286 	   56.6450 	    2.0000 	   47.0000 	    8.9633 
    2.0523 	   56.6830 	    2.0000 	   47.0000 	    9.0013 
    1.8692 	   56.7240 	    2.0000 	   47.0000 	    9.0423 
    1.8540 	   56.7600 	    2.0000 	   47.0000 	    9.0783 
    1.9608 	   56.7950 	    2.0000 	   47.0000 	    9.1133 
    2.0523 	   56.8290 	    2.0000 	   47.0000 	    9.1473 
    2.0371 	   56.8640 	    2.0000 	   47.0000 	    9.1823 
    1.9608 	   56.9010 	    2.0000 	   47.0000 	    9.2193 
    2.0829 	   56.9350 	    2.0000 	   47.0000 	    9.2533 
    2.0676 	   56.9680 	    2.0000 	   47.0000 	    9.2863 
    1.9913 	   57.0010 	    2.0000 	   47.0000 	    9.3193 
    2.0523 	   57.0380 	    2.0000 	   47.0000 	    9.3563 
    1.9913 	   57.0770 	    2.0000 	   47.0000 	    9.3953 
    2.0981 	   57.1110 	    2.0000 	   47.0000 	    9.4294 
    1.8845 	   57.1460 	    2.0000 	   47.0000 	    9.4634 
    1.8997 	   57.1810 	    2.0000 	   47.0000 	    9.4984 
    2.0066 	   57.2150 	    2.0000 	   47.0000 	    9.5324 
    1.9303 	   57.2520 	    2.0000 	   47.0000 	    9.5694 
    1.8540 	   57.2880 	    2.0000 	   47.0000 	    9.6054 
    2.0066 	   57.3250 	    2.0000 	   47.0000 	    9.6424 
    2.0218 	   57.3590 	    2.0000 	   47.0000 	    9.6764 
    1.8997 	   57.3940 	    2.0000 	   47.0000 	    9.7114 
    1.6098 	   57.4290 	    2.0000 	   47.0000 	    9.7464 
    1.9303 	   57.4620 	    2.0000 	   47.0000 	    9.7794 
    1.9760 	   57.5000 	    2.0000 	   47.0000 	    9.8174 
    1.8997 	   57.5380 	    2.0000 	   47.0000 	    9.8554 
    1.9150 	   57.5790 	    2.0000 	   47.0000 	    9.8964 
    1.9760 	   57.6150 	    2.0000 	   47.0000 	    9.9324 
    1.8540 	   57.6520 	    2.0000 	   47.0000 	    9.9694 
    1.9303 	   57.6860 	    2.0000 	   47.0000 	   10.0034 
    1.8997 	   57.7200 	    2.0000 	   47.0000 	   10.0374 
    2.0829 	   57.7550 	    2.0000 	   47.0000 	   10.0724 
    1.9150 	   57.7910 	    2.0000 	   47.0000 	   10.1084 
    1.9455 	   57.8260 	    2.0000 	   47.0000 	   10.1434 
    1.8540 	   57.8610 	    2.0000 	   47.0000 	   10.1784 
    1.8235 	   57.8950 	    2.0000 	   47.0000 	   10.2124 
    1.9150 	   57.9290 	    2.0000 	   47.0000 	   10.2464 
    1.8997 	   57.9630 	    2.0000 	   47.0000 	   10.2804 
    1.9913 	   57.9980 	    2.0000 	   47.0000 	   10.3154 
    2.0523 	   58.0320 	    2.0000 	   47.0000 	   10.3494 
    1.9303 	   58.0680 	    2.0000 	   47.0000 	   10.3854 
    1.9303 	   58.1090 	    2.0000 	   47.0000 	   10.4264 
    1.9150 	   58.1500 	    2.0000 	   47.0000 	   10.4674 
    1.7624 	   58.1880 	    2.0000 	   47.0000 	   10.5054 
    1.8082 	   58.2250 	    2.0000 	   47.0000 	   10.5424 
    1.9760 	   58.2600 	    2.0000 	   47.0000 	   10.5774 
    1.9150 	   58.2950 	    2.0000 	   47.0000 	   10.6124 
    2.0218 	   58.3300 	    2.0000 	   47.0000 	   10.6474 
    1.8235 	   58.3630 	    2.0000 	   47.0000 	   10.6804 
    1.9760 	   58.4000 	    2.0000 	   47.0000 	   10.7174 
    1.7929 	   58.4350 	    2.0000 	   47.0000 	   10.7524 
    1.9150 	   58.4690 	    2.0000 	   47.0000 	   10.7864 
    1.9303 	   58.5050 	    2.0000 	   47.0000 	   10.8224 
    1.9455 	   58.5430 	    2.0000 	   47.0000 	   10.8604 
    1.9455 	   58.5800 	    2.0000 	   47.0000 	   10.8974 
    1.9455 	   58.6150 	    2.0000 	   47.0000 	   10.9324 
    1.9608 	   58.6560 	    2.0000 	   47.0000 	   10.9734 
    2.0676 	   58.6940 	    2.0000 	   47.0000 	   11.0114 
    2.0218 	   58.7320 	    2.0000 	   47.0000 	   11.0494 
    1.8845 	   58.7710 	    2.0000 	   47.0000 	   11.0884 
    1.9150 	   58.8090 	    2.0000 	   47.0000 	   11.1264 
    2.0523 	   58.8500 	    2.0000 	   47.0000 	   11.1675 
    1.8845 	   58.8890 	    2.0000 	   47.0000 	   11.2065 
    2.0523 	   58.9280 	    2.0000 	   47.0000 	   11.2455 
    1.8997 	   58.9660 	    2.0000 	   47.0000 	   11.2835 
    1.9150 	   59.0050 	    2.0000 	   47.0000 	   11.3225 
    1.9608 	   59.0450 	    2.0000 	   47.0000 	   11.3625 
    1.9913 	   59.0840 	    2.0000 	   47.0000 	   11.4015 
    2.0523 	   59.1230 	    2.0000 	   47.0000 	   11.4405 
    1.8997 	   59.1650 	    2.0000 	   47.0000 	   11.4825 
    1.9608 	   59.2030 	    2.0000 	   47.0000 	   11.5205 
    1.9150 	   59.2430 	    2.0000 	   47.0000 	   11.5605 
    2.0371 	   59.2810 	    2.0000 	   47.0000 	   11.5985 
    2.0218 	   59.3200 	    2.0000 	   47.0000 	   11.6375 
    1.9760 	   59.3590 	    2.0000 	   47.0000 	   11.6765 
    1.9150 	   59.3990 	    2.0000 	   47.0000 	   11.7165 
    2.2202 	   59.4390 	    2.0000 	   47.0000 	   11.7565 
    2.0371 	   59.4770 	    2.0000 	   47.0000 	   11.7945 
    1.8540 	   59.5160 	    2.0000 	   47.0000 	   11.8335 
    1.9608 	   59.5510 	    2.0000 	   47.0000 	   11.8685 
    1.9150 	   59.5890 	    2.0000 	   47.0000 	   11.9065 
    1.9608 	   59.6270 	    2.0000 	   47.0000 	   11.9445 
    1.9760 	   59.6650 	    2.0000 	   47.0000 	   11.9825 
    1.8997 	   59.7040 	    2.0000 	   47.0000 	   12.0215 
    1.8540 	   59.7420 	    2.0000 	   47.0000 	   12.0595 
    2.0676 	   59.7810 	    2.0000 	   47.0000 	   12.0985 
    1.8692 	   59.8210 	    2.0000 	   47.0000 	   12.1385 
    1.8845 	   59.8600 	    2.0000 	   47.0000 	   12.1775 
    2.0371 	   59.8970 	    2.0000 	   47.0000 	   12.2145 
    1.9455 	   59.9360 	    2.0000 	   47.0000 	   12.2535 
    1.9150 	   59.9750 	    2.0000 	   47.0000 	   12.2925 
    1.8997 	   60.0140 	    2.0000 	   47.0000 	   12.3315 
    1.9150 	   60.0520 	    2.0000 	   47.0000 	   12.3695 
    1.9150 	   60.0900 	    2.0000 	   47.0000 	   12.4075 
    1.8692 	   60.1300 	    2.0000 	   47.0000 	   12.4475 
    1.9913 	   60.1670 	    2.0000 	   47.0000 	   12.4845 
    1.9303 	   60.2040 	    2.0000 	   47.0000 	   12.5215 
    2.0066 	   60.2420 	    2.0000 	   47.0000 	   12.5595 
    1.8845 	   60.2800 	    2.0000 	   47.0000 	   12.5975 
    1.9455 	   60.3200 	    2.0000 	   47.0000 	   12.6375 
    1.9760 	   60.3570 	    2.0000 	   47.0000 	   12.6745 
    1.9150 	   60.3980 	    2.0000 	   47.0000 	   12.7155 
    1.9455 	   60.4390 	    2.0000 	   47.0000 	   12.7565 
    1.9913 	   60.4770 	    2.0000 	   47.0000 	   12.7945 
    2.0523 	   60.5160 	    2.0000 	   47.0000 	   12.8335 
    1.9760 	   60.5540 	    2.0000 	   47.0000 	   12.8715 
    1.9150 	   60.5940 	    2.0000 	   47.0000 	   12.9116 
    1.9608 	   60.6320 	    2.0000 	   47.0000 	   12.9496 
    1.8692 	   60.6710 	    2.0000 	   47.0000 	   12.9886 
    1.9608 	   60.7090 	    2.0000 	   47.0000 	   13.0266 
    1.9608 	   60.7490 	    2.0000 	   47.0000 	   13.0666 
    1.9455 	   60.7880 	    2.0000 	   47.0000 	   13.1056 
    2.1134 	   60.8270 	    2.0000 	   47.0000 	   13.1446 
    2.0829 	   60.8670 	    2.0000 	   47.0000 	   13.1846 
    2.0676 	   60.9050 	    2.0000 	   47.0000 	   13.2226 
    1.7166 	   60.9470 	    2.0000 	   47.0000 	   13.2646 
    1.8845 	   60.9860 	    2.0000 	   47.0000 	   13.3036 
    2.0218 	   61.0260 	    2.0000 	   47.0000 	   13.3436 
    1.9760 	   61.0650 	    2.0000 	   47.0000 	   13.3826 
    1.9760 	   61.1030 	    2.0000 	   47.0000 	   13.4206 
    2.0523 	   61.1420 	    2.0000 	   47.0000 	   13.4596 
    1.8997 	   61.1830 	    2.0000 	   47.0000 	   13.4996 
    1.9455 	   61.2220 	    2.0000 	   47.0000 	   13.5396 
    1.9303 	   61.2610 	    2.0000 	   47.0000 	   13.5786 
    1.8082 	   61.3010 	    2.0000 	   47.0000 	   13.6186 
    2.0066 	   61.3410 	    2.0000 	   47.0000 	   13.6586 
    2.0218 	   61.3800 	    2.0000 	   47.0000 	   13.6976 
    1.8997 	   61.4190 	    2.0000 	   47.0000 	   13.7366 
    2.0829 	   61.4580 	    2.0000 	   47.0000 	   13.7756 
    1.9913 	   61.4980 	    2.0000 	   47.0000 	   13.8156 
    1.9303 	   61.5350 	    2.0000 	   47.0000 	   13.8526 
    1.9913 	   61.5750 	    2.0000 	   47.0000 	   13.8926 
    2.0218 	   61.6130 	    2.0000 	   47.0000 	   13.9306 
    1.8235 	   61.6500 	    2.0000 	   47.0000 	   13.9676 
    1.9150 	   61.6890 	    2.0000 	   47.0000 	   14.0066 
    1.9303 	   61.7260 	    2.0000 	   47.0000 	   14.0436 
    2.0066 	   61.7610 	    2.0000 	   47.0000 	   14.0786 
    1.9608 	   61.7990 	    2.0000 	   47.0000 	   14.1166 
    1.9303 	   61.8360 	    2.0000 	   47.0000 	   14.1536 
    2.0676 	   61.8700 	    2.0000 	   47.0000 	   14.1876 
    1.9913 	   61.9040 	    2.0000 	   47.0000 	   14.2216 
    1.7014 	   61.9390 	    2.0000 	   47.0000 	   14.2566 
    1.9913 	   61.9730 	    2.0000 	   47.0000 	   14.2906 
    1.9760 	   62.0120 	    2.0000 	   47.0000 	   14.3296 
    1.8845 	   62.0490 	    2.0000 	   47.0000 	   14.3666 
    1.9303 	   62.0860 	    2.0000 	   47.0000 	   14.4036 
    1.9913 	   62.1250 	    2.0000 	   47.0000 	   14.4426 
    1.9303 	   62.1630 	    2.0000 	   47.0000 	   14.4806 
    1.9303 	   62.1970 	    2.0000 	   47.0000 	   14.5146 
    2.0066 	   62.2340 	    2.0000 	   47.0000 	   14.5516 
    2.0218 	   62.2730 	    2.0000 	   47.0000 	   14.5906 
    1.8692 	   62.3120 	    2.0000 	   47.0000 	   14.6296 
    1.8997 	   62.3500 	    2.0000 	   47.0000 	   14.6677 
    1.9150 	   62.3900 	    2.0000 	   47.0000 	   14.7077 
    1.7929 	   62.4300 	    2.0000 	   47.0000 	   14.7477 
    2.0218 	   62.4710 	    2.0000 	   47.0000 	   14.7887 
    2.0218 	   62.5070 	    2.0000 	   47.0000 	   14.8247 
    1.9760 	   62.5500 	    2.0000 	   47.0000 	   14.8677 
    1.8387 	   62.5880 	    2.0000 	   47.0000 	   14.9057 
    1.8692 	   62.6270 	    2.0000 	   47.0000 	   14.9447 
    1.9150 	   62.6640 	    2.0000 	   47.0000 	   14.9817 
    1.8845 	   62.7000 	    2.0000 	   47.0000 	   15.0177 
    1.9608 	   62.7380 	    2.0000 	   47.0000 	   15.0557 
    1.8845 	   62.7750 	    2.0000 	   47.0000 	   15.0927 
    2.0676 	   62.8130 	    2.0000 	   47.0000 	   15.1307 
    1.8997 	   62.8520 	    2.0000 	   47.0000 	   15.1697 
    1.8540 	   62.8900 	    2.0000 	   47.0000 	   15.2077 
    1.9150 	   62.9280 	    2.0000 	   47.0000 	   15.2457 
    1.9760 	   62.9670 	    2.0000 	   47.0000 	   15.2847 
    1.7929 	   63.0060 	    2.0000 	   47.0000 	   15.3237 
    1.8692 	   63.0450 	    2.0000 	   47.0000 	   15.3627 
    1.8387 	   63.0830 	    2.0000 	   47.0000 	   15.4007 
    1.8997 	   63.1190 	    2.0000 	   47.0000 	   15.4367 
    2.0523 	   63.1560 	    2.0000 	   47.0000 	   15.4737 
    2.0981 	   63.1970 	    2.0000 	   47.0000 	   15.5147 
    1.7777 	   63.2350 	    2.0000 	   47.0000 	   15.5527 
    1.9913 	   63.2750 	    2.0000 	   47.0000 	   15.5927 
    2.0981 	   63.3130 	    2.0000 	   47.0000 	   15.6307 
    1.9455 	   63.3520 	    2.0000 	   47.0000 	   15.6697 
    1.8235 	   63.3910 	    2.0000 	   47.0000 	   15.7087 
    1.5946 	   63.4300 	    2.0000 	   47.0000 	   15.7477 
    1.9455 	   63.4680 	    2.0000 	   47.0000 	   15.7857 
    1.5640 	   63.5060 	    2.0000 	   47.0000 	   15.8237 
    2.0218 	   63.5460 	    2.0000 	   47.0000 	   15.8637 
    1.5946 	   63.5840 	    2.0000 	   47.0000 	   15.9017 
    1.9303 	   63.6220 	    2.0000 	   47.0000 	   15.9397 
    1.8845 	   63.6620 	    2.0000 	   47.0000 	   15.9797 
    1.8540 	   63.7020 	    2.0000 	   47.0000 	   16.0197 
    1.9303 	   63.7410 	    2.0000 	   47.0000 	   16.0587 
    2.0523 	   63.7830 	    2.0000 	   47.0000 	   16.1007 
    1.9760 	   63.8210 	    2.0000 	   47.0000 	   16.1387 
    1.9608 	   63.8590 	    2.0000 	   47.0000 	   16.1767 
    1.9760 	   63.8980 	    2.0000 	   47.0000 	   16.2157 
    1.8692 	   63.9370 	    2.0000 	   47.0000 	   16.2547 
    1.9760 	   63.9760 	    2.0000 	   47.0000 	   16.2937 
    2.0981 	   64.0140 	    2.0000 	   47.0000 	   16.3317 
    1.8997 	   64.0540 	    2.0000 	   47.0000 	   16.3717 
    1.8845 	   64.0970 	    2.0000 	   47.0000 	   16.4148 
    1.9760 	   64.1340 	    2.0000 	   47.0000 	   16.4518 
    1.8692 	   64.1730 	    2.0000 	   47.0000 	   16.4908 
    1.8387 	   64.2110 	    2.0000 	   47.0000 	   16.5288 
    1.9303 	   64.2520 	    2.0000 	   47.0000 	   16.5698 
    1.8845 	   64.2910 	    2.0000 	   47.0000 	   16.6088 
    2.0218 	   64.3300 	    2.0000 	   47.0000 	   16.6478 
    2.0676 	   64.3670 	    2.0000 	   47.0000 	   16.6848 
    1.9608 	   64.4070 	    2.0000 	   47.0000 	   16.7248 
    1.9303 	   64.4480 	    2.0000 	   47.0000 	   16.7658 
    2.0523 	   64.4870 	    2.0000 	   47.0000 	   16.8048 
    1.8997 	   64.5260 	    2.0000 	   47.0000 	   16.8438 
    1.9913 	   64.5650 	    2.0000 	   47.0000 	   16.8828 
    1.9455 	   64.6040 	    2.0000 	   47.0000 	   16.9218 
    2.0523 	   64.6440 	    2.0000 	   47.0000 	   16.9618 
    1.9913 	   64.6840 	    2.0000 	   47.0000 	   17.0018 
    2.0218 	   64.7220 	    2.0000 	   47.0000 	   17.0398 
    1.8997 	   64.7600 	    2.0000 	   47.0000 	   17.0778 
    1.9913 	   64.7960 	    2.0000 	   47.0000 	   17.1138 
    2.0218 	   64.8330 	    2.0000 	   47.0000 	   17.1508 
    1.9608 	   64.8680 	    2.0000 	   47.0000 	   17.1858 
    1.9608 	   64.9030 	    2.0000 	   47.0000 	   17.2208 
    2.0981 	   64.9420 	    2.0000 	   47.0000 	   17.2598 
    1.7929 	   64.9790 	    2.0000 	   47.0000 	   17.2968 
    1.8540 	   65.0160 	    2.0000 	   47.0000 	   17.3338 
    1.9760 	   65.0500 	    2.0000 	   47.0000 	   17.3678 
    1.9150 	   65.0880 	    2.0000 	   47.0000 	   17.4058 
    1.8540 	   65.1280 	    2.0000 	   47.0000 	   17.4458 
    1.8845 	   65.1680 	    2.0000 	   47.0000 	   17.4858 
    1.8997 	   65.2060 	    2.0000 	   47.0000 	   17.5238 
    1.8082 	   65.2440 	    2.0000 	   47.0000 	   17.5618 
    1.9303 	   65.2840 	    2.0000 	   47.0000 	   17.6018 
    1.9608 	   65.3240 	    2.0000 	   47.0000 	   17.6418 
    1.8235 	   65.3640 	    2.0000 	   47.0000 	   17.6818 
    1.9303 	   65.4000 	    2.0000 	   47.0000 	   17.7178 
    1.8692 	   65.4350 	    2.0000 	   47.0000 	   17.7528 
    1.8540 	   65.4740 	    2.0000 	   47.0000 	   17.7918 
    1.9608 	   65.5130 	    2.0000 	   47.0000 	   17.8308 
    1.9303 	   65.5480 	    2.0000 	   47.0000 	   17.8658 
    1.8082 	   65.5830 	    2.0000 	   47.0000 	   17.9008 
    2.0066 	   65.6190 	    2.0000 	   47.0000 	   17.9368 
    1.9303 	   65.6580 	    2.0000 	   47.0000 	   17.9758 
    1.8540 	   65.6930 	    2.0000 	   47.0000 	   18.0108 
    1.5335 	   65.7300 	    2.0000 	   47.0000 	   18.0478 
    1.8997 	   65.7640 	    2.0000 	   47.0000 	   18.0818 
    1.9913 	   65.8010 	    2.0000 	   47.0000 	   18.1188 
    1.9760 	   65.8350 	    2.0000 	   47.0000 	   18.1529 
    2.0066 	   65.8710 	    2.0000 	   47.0000 	   18.1889 
    1.7929 	   65.9060 	    2.0000 	   47.0000 	   18.2239 
    2.0371 	   65.9440 	    2.0000 	   47.0000 	   18.2619 
    2.0218 	   65.9820 	    2.0000 	   47.0000 	   18.2999 
    1.8540 	   66.0170 	    2.0000 	   47.0000 	   18.3349 
    1.8692 	   66.0520 	    2.0000 	   47.0000 	   18.3699 
    2.0218 	   66.0910 	    2.0000 	   47.0000 	   18.4089 
    1.8845 	   66.1280 	    2.0000 	   47.0000 	   18.4459 
    1.9455 	   66.1680 	    2.0000 	   47.0000 	   18.4859 
    2.0066 	   66.2070 	    2.0000 	   47.0000 	   18.5249 
    1.8997 	   66.2460 	    2.0000 	   47.0000 	   18.5639 
    2.0829 	   66.2890 	    2.0000 	   47.0000 	   18.6069 
    1.9608 	   66.3310 	    2.0000 	   47.0000 	   18.6489 
    1.9150 	   66.3690 	    2.0000 	   47.0000 	   18.6869 
    1.8387 	   66.4070 	    2.0000 	   47.0000 	   18.7249 
    1.9455 	   66.4460 	    2.0000 	   47.0000 	   18.7639 
    2.0829 	   66.4850 	    2.0000 	   47.0000 	   18.8029 
    1.8387 	   66.5250 	    2.0000 	   47.0000 	   18.8429 
    1.9303 	   66.5660 	    2.0000 	   47.0000 	   18.8839 
    1.8692 	   66.6080 	    2.0000 	   47.0000 	   18.9259 
    1.7014 	   66.6460 	    2.0000 	   47.0000 	   18.9629 
    1.9455 	   66.6840 	    2.0000 	   47.0000 	   19.0019 
    1.9608 	   66.7230 	    2.0000 	   47.0000 	   19.0409 
    1.9455 	   66.7620 	    2.0000 	   47.0000 	   19.0799 
    2.0829 	   66.8020 	    2.0000 	   47.0000 	   19.1199 
    1.8845 	   66.8420 	    2.0000 	   47.0000 	   19.1599 
    1.8997 	   66.8780 	    2.0000 	   47.0000 	   19.1959 
    2.0981 	   66.9140 	    2.0000 	   47.0000 	   19.2319 
    2.0523 	   66.9510 	    2.0000 	   47.0000 	   19.2689 
    1.8692 	   66.9920 	    2.0000 	   47.0000 	   19.3099 
    2.0523 	   67.0310 	    2.0000 	   47.0000 	   19.3489 
    2.0066 	   67.0700 	    2.0000 	   47.0000 	   19.3879 
    1.8997 	   67.1110 	    2.0000 	   47.0000 	   19.4289 
    2.0371 	   67.1520 	    2.0000 	   47.0000 	   19.4699 
    2.0523 	   67.1930 	    2.0000 	   47.0000 	   19.5109 
    1.8997 	   67.2340 	    2.0000 	   47.0000 	   19.5519 
    1.8692 	   67.2750 	    2.0000 	   47.0000 	   19.5929 
    1.9455 	   67.3150 	    2.0000 	   47.0000 	   19.6329 
    2.0218 	   67.3560 	    2.0000 	   47.0000 	   19.6739 
    2.1134 	   67.4000 	    2.0000 	   47.0000 	   19.7179 
    1.6709 	   67.4400 	    2.0000 	   47.0000 	   19.7579 
    1.9150 	   67.4810 	    2.0000 	   47.0000 	   19.7989 
    1.9760 	   67.5210 	    2.0000 	   47.0000 	   19.8389 
    2.0523 	   67.5620 	    2.0000 	   47.0000 	   19.8799 
    1.9608 	   67.6010 	    2.0000 	   47.0000 	   19.9190 
    1.9608 	   67.6390 	    2.0000 	   47.0000 	   19.9570 
    2.0676 	   67.6800 	    2.0000 	   47.0000 	   19.9980 
    1.8845 	   67.7200 	    2.0000 	   47.0000 	   20.0380 
    2.0523 	   67.7600 	    2.0000 	   47.0000 	   20.0780 
    1.8997 	   67.8030 	    2.0000 	   47.0000 	   20.1210 
    1.9303 	   67.8430 	    2.0000 	   47.0000 	   20.1610 
    1.8997 	   67.8810 	    2.0000 	   47.0000 	   20.1990 
    1.9760 	   67.9230 	    2.0000 	   47.0000 	   20.2410 
    1.8540 	   67.9610 	    2.0000 	   47.0000 	   20.2790 
    1.9150 	   68.0000 	    2.0000 	   47.0000 	   20.3180 
    1.8997 	   68.0390 	    2.0000 	   47.0000 	   20.3570 
    2.0371 	   68.0800 	    2.0000 	   47.0000 	   20.3980 
    2.0066 	   68.1230 	    2.0000 	   47.0000 	   20.4400 
    1.8845 	   68.1620 	    2.0000 	   47.0000 	   20.4800 
    2.0218 	   68.2010 	    2.0000 	   47.0000 	   20.5190 
    2.0676 	   68.2400 	    2.0000 	   47.0000 	   20.5580 
    1.8997 	   68.2790 	    2.0000 	   47.0000 	   20.5970 
    1.8997 	   68.3180 	    2.0000 	   47.0000 	   20.6360 
    1.9913 	   68.3590 	    2.0000 	   47.0000 	   20.6770 
    1.7929 	   68.3980 	    2.0000 	   47.0000 	   20.7160 
    1.8082 	   68.4350 	    2.0000 	   47.0000 	   20.7530 
    1.8692 	   68.4740 	    2.0000 	   47.0000 	   20.7920 
    1.9760 	   68.5140 	    2.0000 	   47.0000 	   20.8320 
    1.9455 	   68.5560 	    2.0000 	   47.0000 	   20.8740 
    1.9608 	   68.5950 	    2.0000 	   47.0000 	   20.9130 
    1.9913 	   68.6360 	    2.0000 	   47.0000 	   20.9540 
    1.7166 	   68.6760 	    2.0000 	   47.0000 	   20.9940 
    1.8387 	   68.7170 	    2.0000 	   47.0000 	   21.0350 
    1.9150 	   68.7580 	    2.0000 	   47.0000 	   21.0760 
    1.9303 	   68.7960 	    2.0000 	   47.0000 	   21.1140 
    1.8997 	   68.8340 	    2.0000 	   47.0000 	   21.1520 
    1.9608 	   68.8750 	    2.0000 	   47.0000 	   21.1930 
    1.9760 	   68.9160 	    2.0000 	   47.0000 	   21.2340 
    1.8540 	   68.9590 	    2.0000 	   47.0000 	   21.2770 
    1.8997 	   68.9990 	    2.0000 	   47.0000 	   21.3170 
    1.9913 	   69.0370 	    2.0000 	   47.0000 	   21.3540 
    1.8692 	   69.0780 	    2.0000 	   47.0000 	   21.3960 
    1.8997 	   69.1200 	    2.0000 	   47.0000 	   21.4380 
    1.8692 	   69.1600 	    2.0000 	   47.0000 	   21.4780 
    1.8997 	   69.2030 	    2.0000 	   47.0000 	   21.5210 
    1.9303 	   69.2420 	    2.0000 	   47.0000 	   21.5600 
    1.9608 	   69.2830 	    2.0000 	   47.0000 	   21.6010 
    1.8997 	   69.3400 	    2.0000 	   47.0000 	   21.6581 
    1.9760 	   69.3760 	    2.0000 	   47.0000 	   21.6941 
    1.8997 	   69.4170 	    2.0000 	   47.0000 	   21.7351 
    1.8845 	   69.4580 	    2.0000 	   47.0000 	   21.7761 
    1.5946 	   69.4970 	    2.0000 	   47.0000 	   21.8151 
    1.8997 	   69.5360 	    2.0000 	   47.0000 	   21.8541 
    1.9913 	   69.5750 	    2.0000 	   47.0000 	   21.8931 
    2.0066 	   69.6150 	    2.0000 	   47.0000 	   21.9331 
    2.0981 	   69.6560 	    2.0000 	   47.0000 	   21.9741 
    1.9455 	   69.6960 	    2.0000 	   47.0000 	   22.0141 
    1.9913 	   69.7390 	    2.0000 	   47.0000 	   22.0571 
    1.6556 	   69.7780 	    2.0000 	   47.0000 	   22.0961 
    2.0371 	   69.8190 	    2.0000 	   47.0000 	   22.1371 
    1.7777 	   69.8600 	    2.0000 	   47.0000 	   22.1781 
    1.9150 	   69.9010 	    2.0000 	   47.0000 	   22.2191 
    2.0371 	   69.9400 	    2.0000 	   47.0000 	   22.2581 
    2.0371 	   69.9790 	    2.0000 	   47.0000 	   22.2971 
    2.0371 	   70.0210 	    2.0000 	   47.0000 	   22.3391 
    1.8997 	   70.0590 	    2.0000 	   47.0000 	   22.3771 
    1.9608 	   70.1030 	    2.0000 	   47.0000 	   22.4211 
    2.0218 	   70.1440 	    2.0000 	   47.0000 	   22.4621 
    1.9608 	   70.1850 	    2.0000 	   47.0000 	   22.5031 
    1.9303 	   70.2250 	    2.0000 	   47.0000 	   22.5431 
    1.8845 	   70.2640 	    2.0000 	   47.0000 	   22.5821 
    2.0523 	   70.3050 	    2.0000 	   47.0000 	   22.6231 
    1.8845 	   70.3460 	    2.0000 	   47.0000 	   22.6641 
    2.0066 	   70.3870 	    2.0000 	   47.0000 	   22.7051 
    2.0676 	   70.4270 	    2.0000 	   47.0000 	   22.7451 
    1.8845 	   70.4650 	    2.0000 	   47.0000 	   22.7831 
    1.8387 	   70.5030 	    2.0000 	   47.0000 	   22.8211 
    1.5640 	   70.5390 	    2.0000 	   47.0000 	   22.8571 
    1.9303 	   70.5750 	    2.0000 	   47.0000 	   22.8931 
    1.9913 	   70.6120 	    2.0000 	   47.0000 	   22.9301 
    1.8997 	   70.6520 	    2.0000 	   47.0000 	   22.9701 
    2.0218 	   70.6910 	    2.0000 	   47.0000 	   23.0091 
    2.0218 	   70.7300 	    2.0000 	   47.0000 	   23.0481 
    1.8387 	   70.7730 	    2.0000 	   47.0000 	   23.0911 
    1.8845 	   70.8090 	    2.0000 	   47.0000 	   23.1271 
    1.7624 	   70.8450 	    2.0000 	   47.0000 	   23.1631 
    1.7929 	   70.8840 	    2.0000 	   47.0000 	   23.2021 
    1.9760 	   70.9220 	    2.0000 	   47.0000 	   23.2401 
    1.8845 	   70.9570 	    2.0000 	   47.0000 	   23.2751 
    1.8997 	   70.9940 	    2.0000 	   47.0000 	   23.3121 
    1.9303 	   71.0320 	    2.0000 	   47.0000 	   23.3501 
    1.9455 	   71.0700 	    2.0000 	   47.0000 	   23.3881 
    2.0981 	   71.1100 	    2.0000 	   47.0000 	   23.4282 
    2.0829 	   71.1490 	    2.0000 	   47.0000 	   23.4672 
    1.9303 	   71.1910 	    2.0000 	   47.0000 	   23.5092 
    1.9760 	   71.2310 	    2.0000 	   47.0000 	   23.5492 
    1.9303 	   71.2710 	    2.0000 	   47.0000 	   23.5892 
    1.8387 	   71.3120 	    2.0000 	   47.0000 	   23.6302 
    1.8692 	   71.3520 	    2.0000 	   47.0000 	   23.6702 
    1.9303 	   71.3940 	    2.0000 	   47.0000 	   23.7122 
    1.9150 	   71.4340 	    2.0000 	   47.0000 	   23.7522 
    2.0066 	   71.4750 	    2.0000 	   47.0000 	   23.7932 
    1.8082 	   71.5160 	    2.0000 	   47.0000 	   23.8342 
    1.8997 	   71.5540 	    2.0000 	   47.0000 	   23.8722 
    1.8692 	   71.5940 	    2.0000 	   47.0000 	   23.9122 
    1.9150 	   71.6320 	    2.0000 	   47.0000 	   23.9502 
    1.8387 	   71.6810 	    2.0000 	   47.0000 	   23.9992 
    2.0218 	   71.7210 	    2.0000 	   47.0000 	   24.0392 
    1.9455 	   71.7630 	    2.0000 	   47.0000 	   24.0812 
    1.9608 	   71.8070 	    2.0000 	   47.0000 	   24.1252 
    1.8692 	   71.8480 	    2.0000 	   47.0000 	   24.1662 
    1.8692 	   71.8890 	    2.0000 	   47.0000 	   24.2072 
    1.9608 	   71.9290 	    2.0000 	   47.0000 	   24.2472 
    2.0066 	   71.9690 	    2.0000 	   47.0000 	   24.2872 
    2.0523 	   72.0080 	    2.0000 	   47.0000 	   24.3262 
    1.9455 	   72.0500 	    2.0000 	   47.0000 	   24.3682 
    1.9608 	   72.0920 	    2.0000 	   47.0000 	   24.4102 
    1.9150 	   72.1330 	    2.0000 	   47.0000 	   24.4512 
    1.9455 	   72.1730 	    2.0000 	   47.0000 	   24.4912 
    2.0371 	   72.2150 	    2.0000 	   47.0000 	   24.5332 
    1.7319 	   72.2550 	    2.0000 	   47.0000 	   24.5732 
    1.9150 	   72.2960 	    2.0000 	   47.0000 	   24.6142 
    1.8692 	   72.3370 	    2.0000 	   47.0000 	   24.6552 
    1.8845 	   72.3760 	    2.0000 	   47.0000 	   24.6942 
    1.9303 	   72.4180 	    2.0000 	   47.0000 	   24.7362 
    2.0829 	   72.4580 	    2.0000 	   47.0000 	   24.7762 
    1.9150 	   72.4990 	    2.0000 	   47.0000 	   24.8172 
    1.8845 	   72.5400 	    2.0000 	   47.0000 	   24.8582 
    1.8387 	   72.5780 	    2.0000 	   47.0000 	   24.8962 
    1.8387 	   72.6160 	    2.0000 	   47.0000 	   24.9342 
    1.9150 	   72.6580 	    2.0000 	   47.0000 	   24.9762 
    1.8387 	   72.6950 	    2.0000 	   47.0000 	   25.0132 
    1.8540 	   72.7350 	    2.0000 	   47.0000 	   25.0532 
    1.7929 	   72.7720 	    2.0000 	   47.0000 	   25.0902 
    1.8235 	   72.8090 	    2.0000 	   47.0000 	   25.1273 
    2.0981 	   72.8470 	    2.0000 	   47.0000 	   25.1653 
    1.9455 	   72.8900 	    2.0000 	   47.0000 	   25.2083 
    1.9608 	   72.9290 	    2.0000 	   47.0000 	   25.2473 
    1.9150 	   72.9710 	    2.0000 	   47.0000 	   25.2893 
    1.8387 	   73.0130 	    2.0000 	   47.0000 	   25.3303 
    1.9303 	   73.0520 	    2.0000 	   47.0000 	   25.3703 
    1.9455 	   73.0920 	    2.0000 	   47.0000 	   25.4103 
    1.8845 	   73.1330 	    2.0000 	   47.0000 	   25.4513 
    1.8540 	   73.1730 	    2.0000 	   47.0000 	   25.4913 
    1.9760 	   73.2120 	    2.0000 	   47.0000 	   25.5303 
    1.8387 	   73.2510 	    2.0000 	   47.0000 	   25.5693 
    1.9303 	   73.2890 	    2.0000 	   47.0000 	   25.6073 
    1.6556 	   73.3400 	    2.0000 	   47.0000 	   25.6583 
    1.9913 	   73.3740 	    2.0000 	   47.0000 	   25.6923 
    1.9303 	   73.4140 	    2.0000 	   47.0000 	   25.7323 
    1.9455 	   73.4570 	    2.0000 	   47.0000 	   25.7753 
    1.8845 	   73.4970 	    2.0000 	   47.0000 	   25.8153 
    1.8540 	   73.5370 	    2.0000 	   47.0000 	   25.8553 
    1.9913 	   73.5770 	    2.0000 	   47.0000 	   25.8953 
    1.7319 	   73.6170 	    2.0000 	   47.0000 	   25.9353 
    1.8845 	   73.6590 	    2.0000 	   47.0000 	   25.9773 
    1.8997 	   73.6990 	    2.0000 	   47.0000 	   26.0173 
    1.6556 	   73.7370 	    2.0000 	   47.0000 	   26.0553 
    1.8997 	   73.7770 	    2.0000 	   47.0000 	   26.0953 
    1.9913 	   73.8190 	    2.0000 	   47.0000 	   26.1373 
    1.8692 	   73.8600 	    2.0000 	   47.0000 	   26.1783 
    1.9913 	   73.9000 	    2.0000 	   47.0000 	   26.2183 
    1.8997 	   73.9410 	    2.0000 	   47.0000 	   26.2593 
    1.8540 	   73.9830 	    2.0000 	   47.0000 	   26.3013 
    1.8997 	   74.0240 	    2.0000 	   47.0000 	   26.3423 
    1.8845 	   74.0670 	    2.0000 	   47.0000 	   26.3853 
    1.9913 	   74.1100 	    2.0000 	   47.0000 	   26.4283 
    1.9303 	   74.1500 	    2.0000 	   47.0000 	   26.4683 
    1.9455 	   74.1910 	    2.0000 	   47.0000 	   26.5093 
    1.9150 	   74.2300 	    2.0000 	   47.0000 	   26.5483 
    1.9913 	   74.2700 	    2.0000 	   47.0000 	   26.5883 
    1.9760 	   74.3090 	    2.0000 	   47.0000 	   26.6273 
    1.8997 	   74.3510 	    2.0000 	   47.0000 	   26.6693 
    2.0676 	   74.3900 	    2.0000 	   47.0000 	   26.7083 
    1.8540 	   74.4290 	    2.0000 	   47.0000 	   26.7473 
    1.9608 	   74.4700 	    2.0000 	   47.0000 	   26.7883 
    2.0218 	   74.5090 	    2.0000 	   47.0000 	   26.8273 
    1.9455 	   74.5490 	    2.0000 	   47.0000 	   26.8673 
    1.9760 	   74.5910 	    2.0000 	   47.0000 	   26.9094 
    2.0523 	   74.6320 	    2.0000 	   47.0000 	   26.9494 
    1.9608 	   74.6730 	    2.0000 	   47.0000 	   26.9904 
    2.0066 	   74.7130 	    2.0000 	   47.0000 	   27.0304 
    1.8845 	   74.7530 	    2.0000 	   47.0000 	   27.0704 
    1.7472 	   74.7920 	    2.0000 	   47.0000 	   27.1094 
    1.8387 	   74.8320 	    2.0000 	   47.0000 	   27.1494 
    1.9150 	   74.8710 	    2.0000 	   47.0000 	   27.1884 
    1.8997 	   74.9080 	    2.0000 	   47.0000 	   27.2254 
    2.1592 	   74.9440 	    2.0000 	   47.0000 	   27.2614 
    1.9913 	   74.9790 	    2.0000 	   47.0000 	   27.2964 
    1.8235 	   75.0140 	    2.0000 	   47.0000 	   27.3314 
    2.0371 	   75.0510 	    2.0000 	   47.0000 	   27.3684 
    1.9608 	   75.0870 	    2.0000 	   47.0000 	   27.4044 
    1.8692 	   75.1250 	    2.0000 	   47.0000 	   27.4424 
    1.7777 	   75.1650 	    2.0000 	   47.0000 	   27.4824 
    1.8082 	   75.2050 	    2.0000 	   47.0000 	   27.5224 
    1.9455 	   75.2450 	    2.0000 	   47.0000 	   27.5624 
    1.9608 	   75.2850 	    2.0000 	   47.0000 	   27.6024 
    1.7929 	   75.3220 	    2.0000 	   47.0000 	   27.6394 
    1.9760 	   75.3630 	    2.0000 	   47.0000 	   27.6804 
    1.8540 	   75.4010 	    2.0000 	   47.0000 	   27.7184 
    1.8845 	   75.4420 	    2.0000 	   47.0000 	   27.7594 
    1.8387 	   75.4820 	    2.0000 	   47.0000 	   27.7994 
    1.9150 	   75.5240 	    2.0000 	   47.0000 	   27.8414 
    1.8997 	   75.5630 	    2.0000 	   47.0000 	   27.8804 
    1.9150 	   75.6030 	    2.0000 	   47.0000 	   27.9204 
    1.9608 	   75.6420 	    2.0000 	   47.0000 	   27.9594 
    2.0829 	   75.6830 	    2.0000 	   47.0000 	   28.0004 
    2.0066 	   75.7210 	    2.0000 	   47.0000 	   28.0384 
    1.8845 	   75.7570 	    2.0000 	   47.0000 	   28.0744 
    1.8997 	   75.7940 	    2.0000 	   47.0000 	   28.1114 
    1.9150 	   75.8310 	    2.0000 	   47.0000 	   28.1484 
    1.9760 	   75.8670 	    2.0000 	   47.0000 	   28.1844 
    1.8997 	   75.9040 	    2.0000 	   47.0000 	   28.2214 
    1.8082 	   75.9410 	    2.0000 	   47.0000 	   28.2584 
    1.9608 	   75.9770 	    2.0000 	   47.0000 	   28.2944 
    1.7014 	   76.0160 	    2.0000 	   47.0000 	   28.3334 
    1.8387 	   76.0540 	    2.0000 	   47.0000 	   28.3714 
    1.8387 	   76.0940 	    2.0000 	   47.0000 	   28.4114 
    1.9303 	   76.1300 	    2.0000 	   47.0000 	   28.4474 
    1.9760 	   76.1660 	    2.0000 	   47.0000 	   28.4834 
    1.8082 	   76.2050 	    2.0000 	   47.0000 	   28.5224 
    1.8387 	   76.2440 	    2.0000 	   47.0000 	   28.5614 
    1.8540 	   76.2840 	    2.0000 	   47.0000 	   28.6014 
    1.7624 	   76.3240 	    2.0000 	   47.0000 	   28.6415 
    1.8387 	   76.3630 	    2.0000 	   47.0000 	   28.6805 
    1.8235 	   76.3990 	    2.0000 	   47.0000 	   28.7165 
    1.9303 	   76.4360 	    2.0000 	   47.0000 	   28.7535 
    1.8845 	   76.4730 	    2.0000 	   47.0000 	   28.7905 
    2.0981 	   76.5100 	    2.0000 	   47.0000 	   28.8275 
    1.9303 	   76.5460 	    2.0000 	   47.0000 	   28.8635 
    2.0066 	   76.5820 	    2.0000 	   47.0000 	   28.8995 
    2.0218 	   76.6190 	    2.0000 	   47.0000 	   28.9365 
    1.9455 	   76.6570 	    2.0000 	   47.0000 	   28.9745 
    1.8387 	   76.6930 	    2.0000 	   47.0000 	   29.0105 
    1.9913 	   76.7300 	    2.0000 	   47.0000 	   29.0475 
    1.9455 	   76.7670 	    2.0000 	   47.0000 	   29.0845 
    1.9455 	   76.8040 	    2.0000 	   47.0000 	   29.1215 
    1.9608 	   76.8410 	    2.0000 	   47.0000 	   29.1585 
    1.9150 	   76.8780 	    2.0000 	   47.0000 	   29.1955 
    1.9760 	   76.9130 	    2.0000 	   47.0000 	   29.2305 
    2.0829 	   76.9490 	    2.0000 	   47.0000 	   29.2665 
    1.9303 	   76.9850 	    2.0000 	   47.0000 	   29.3025 
    1.8692 	   77.0220 	    2.0000 	   47.0000 	   29.3395 
    1.9303 	   77.0580 	    2.0000 	   47.0000 	   29.3755 
    2.0218 	   77.0940 	    2.0000 	   47.0000 	   29.4115 
    1.8387 	   77.1320 	    2.0000 	   47.0000 	   29.4495 
    1.9608 	   77.1710 	    2.0000 	   47.0000 	   29.4885 
    2.0218 	   77.2120 	    2.0000 	   47.0000 	   29.5295 
    1.9760 	   77.2540 	    2.0000 	   47.0000 	   29.5715 
    2.0371 	   77.2940 	    2.0000 	   47.0000 	   29.6115 
    1.8997 	   77.3410 	    2.0000 	   47.0000 	   29.6585 
    1.9150 	   77.3830 	    2.0000 	   47.0000 	   29.7005 
    1.9455 	   77.4260 	    2.0000 	   47.0000 	   29.7435 
    1.9150 	   77.4670 	    2.0000 	   47.0000 	   29.7845 
    1.9455 	   77.5080 	    2.0000 	   47.0000 	   29.8255 
    1.8845 	   77.5530 	    2.0000 	   47.0000 	   29.8705 
    1.7319 	   77.5940 	    2.0000 	   47.0000 	   29.9115 
    1.8235 	   77.6340 	    2.0000 	   47.0000 	   29.9515 
    1.8845 	   77.6750 	    2.0000 	   47.0000 	   29.9925 
    1.8235 	   77.7140 	    2.0000 	   47.0000 	   30.0315 
    2.0371 	   77.7550 	    2.0000 	   47.0000 	   30.0725 
    1.8235 	   77.7930 	    2.0000 	   47.0000 	   30.1105 
    1.8540 	   77.8340 	    2.0000 	   47.0000 	   30.1515 
    1.9913 	   77.8750 	    2.0000 	   47.0000 	   30.1925 
    1.7929 	   77.9160 	    2.0000 	   47.0000 	   30.2335 
    2.0218 	   77.9570 	    2.0000 	   47.0000 	   30.2745 
    1.9150 	   77.9980 	    2.0000 	   47.0000 	   30.3155 
    1.9303 	   78.0370 	    2.0000 	   47.0000 	   30.3545 
    1.8845 	   78.0740 	    2.0000 	   47.0000 	   30.3916 
    1.9150 	   78.1140 	    2.0000 	   47.0000 	   30.4316 
    1.8997 	   78.1500 	    2.0000 	   47.0000 	   30.4676 
    1.9608 	   78.1860 	    2.0000 	   47.0000 	   30.5036 
    1.9150 	   78.2240 	    2.0000 	   47.0000 	   30.5416 
    1.8845 	   78.2610 	    2.0000 	   47.0000 	   30.5786 
    1.9150 	   78.2970 	    2.0000 	   47.0000 	   30.6146 
    2.0066 	   78.3340 	    2.0000 	   47.0000 	   30.6516 
    1.8235 	   78.3710 	    2.0000 	   47.0000 	   30.6886 
    1.9303 	   78.4080 	    2.0000 	   47.0000 	   30.7256 
    1.8692 	   78.4460 	    2.0000 	   47.0000 	   30.7636 
    1.9150 	   78.4880 	    2.0000 	   47.0000 	   30.8056 
    2.0218 	   78.5290 	    2.0000 	   47.0000 	   30.8466 
    1.8387 	   78.5660 	    2.0000 	   47.0000 	   30.8836 
    1.8997 	   78.6030 	    2.0000 	   47.0000 	   30.9206 
    1.8082 	   78.6400 	    2.0000 	   47.0000 	   30.9576 
    2.1134 	   78.6770 	    2.0000 	   47.0000 	   30.9946 
    2.1439 	   78.7130 	    2.0000 	   47.0000 	   31.0306 
    1.9608 	   78.7520 	    2.0000 	   47.0000 	   31.0696 
    2.0066 	   78.7890 	    2.0000 	   47.0000 	   31.1066 
    1.9303 	   78.8260 	    2.0000 	   47.0000 	   31.1436 
    1.9455 	   78.8630 	    2.0000 	   47.0000 	   31.1806 
    2.0066 	   78.8990 	    2.0000 	   47.0000 	   31.2166 
    1.9608 	   78.9380 	    2.0000 	   47.0000 	   31.2556 
    2.0523 	   78.9780 	    2.0000 	   47.0000 	   31.2956 
    1.8692 	   79.0150 	    2.0000 	   47.0000 	   31.3326 
    1.9913 	   79.0580 	    2.0000 	   47.0000 	   31.3756 
    1.9608 	   79.0960 	    2.0000 	   47.0000 	   31.4136 
    1.6861 	   79.1320 	    2.0000 	   47.0000 	   31.4496 
    1.8235 	   79.1690 	    2.0000 	   47.0000 	   31.4866 
    1.9608 	   79.2110 	    2.0000 	   47.0000 	   31.5286 
    1.8082 	   79.2530 	    2.0000 	   47.0000 	   31.5706 
    1.8235 	   79.2920 	    2.0000 	   47.0000 	   31.6096 
    2.0218 	   79.3410 	    2.0000 	   47.0000 	   31.6586 
    1.9608 	   79.3800 	    2.0000 	   47.0000 	   31.6976 
    1.9303 	   79.4220 	    2.0000 	   47.0000 	   31.7396 
    1.8387 	   79.4620 	    2.0000 	   47.0000 	   31.7796 
    1.7929 	   79.4990 	    2.0000 	   47.0000 	   31.8166 
    1.8997 	   79.5360 	    2.0000 	   47.0000 	   31.8536 
    1.9608 	   79.5740 	    2.0000 	   47.0000 	   31.8916 
    1.8692 	   79.6110 	    2.0000 	   47.0000 	   31.9286 
    2.0829 	   79.6530 	    2.0000 	   47.0000 	   31.9706 
    1.9913 	   79.6920 	    2.0000 	   47.0000 	   32.0096 
    1.9303 	   79.7290 	    2.0000 	   47.0000 	   32.0466 
    1.8692 	   79.7670 	    2.0000 	   47.0000 	   32.0846 
    2.0829 	   79.8040 	    2.0000 	   47.0000 	   32.1217 
    1.7624 	   79.8410 	    2.0000 	   47.0000 	   32.1587 
    1.8845 	   79.8790 	    2.0000 	   47.0000 	   32.1967 
    1.9303 	   79.9170 	    2.0000 	   47.0000 	   32.2347 
    1.8692 	   79.9540 	    2.0000 	   47.0000 	   32.2717 
    2.0981 	   79.9920 	    2.0000 	   47.0000 	   32.3097 
    1.8692 	   80.0290 	    2.0000 	   47.0000 	   32.3467 
    1.9150 	   80.0670 	    2.0000 	   47.0000 	   32.3847 
    1.9303 	   80.1070 	    2.0000 	   47.0000 	   32.4247 
    1.9150 	   80.1470 	    2.0000 	   47.0000 	   32.4647 
    2.1134 	   80.1880 	    2.0000 	   47.0000 	   32.5057 
    1.8082 	   80.2280 	    2.0000 	   47.0000 	   32.5457 
    2.0523 	   80.2650 	    2.0000 	   47.0000 	   32.5827 
    1.9455 	   80.3020 	    2.0000 	   47.0000 	   32.6197 
    1.9608 	   80.3400 	    2.0000 	   47.0000 	   32.6577 
    1.9303 	   80.3770 	    2.0000 	   47.0000 	   32.6947 
    1.9303 	   80.4140 	    2.0000 	   47.0000 	   32.7317 
    1.8997 	   80.4550 	    2.0000 	   47.0000 	   32.7727 
    1.8540 	   80.4940 	    2.0000 	   47.0000 	   32.8117 
    1.9303 	   80.5320 	    2.0000 	   47.0000 	   32.8497 
    1.8845 	   80.5690 	    2.0000 	   47.0000 	   32.8867 
    1.9303 	   80.6090 	    2.0000 	   47.0000 	   32.9267 
    1.8387 	   80.6480 	    2.0000 	   47.0000 	   32.9657 
    1.9150 	   80.6920 	    2.0000 	   47.0000 	   33.0097 
    1.6861 	   80.7320 	    2.0000 	   47.0000 	   33.0497 
    2.0218 	   80.7750 	    2.0000 	   47.0000 	   33.0927 
    2.0371 	   80.8180 	    2.0000 	   47.0000 	   33.1357 
    1.9303 	   80.8600 	    2.0000 	   47.0000 	   33.1777 
    1.9913 	   80.8980 	    2.0000 	   47.0000 	   33.2157 
    2.1439 	   80.9390 	    2.0000 	   47.0000 	   33.2567 
    1.7014 	   80.9810 	    2.0000 	   47.0000 	   33.2987 
    1.9760 	   81.0230 	    2.0000 	   47.0000 	   33.3407 
    1.8997 	   81.0640 	    2.0000 	   47.0000 	   33.3817 
    1.8845 	   81.1040 	    2.0000 	   47.0000 	   33.4217 
    1.7777 	   81.1420 	    2.0000 	   47.0000 	   33.4597 
    1.9608 	   81.1790 	    2.0000 	   47.0000 	   33.4967 
    2.1439 	   81.2180 	    2.0000 	   47.0000 	   33.5357 
    1.8997 	   81.2540 	    2.0000 	   47.0000 	   33.5717 
    1.8845 	   81.2920 	    2.0000 	   47.0000 	   33.6097 
    1.9760 	   81.3410 	    2.0000 	   47.0000 	   33.6587 
    1.8082 	   81.3840 	    2.0000 	   47.0000 	   33.7017 
    1.8845 	   81.4260 	    2.0000 	   47.0000 	   33.7437 
    2.0218 	   81.4660 	    2.0000 	   47.0000 	   33.7837 
    1.7777 	   81.5080 	    2.0000 	   47.0000 	   33.8257 
    1.9760 	   81.5500 	    2.0000 	   47.0000 	   33.8677 
    1.9150 	   81.5910 	    2.0000 	   47.0000 	   33.9088 
    1.8845 	   81.6340 	    2.0000 	   47.0000 	   33.9518 
    1.8997 	   81.6750 	    2.0000 	   47.0000 	   33.9928 
    1.8540 	   81.7170 	    2.0000 	   47.0000 	   34.0348 
    1.8997 	   81.7580 	    2.0000 	   47.0000 	   34.0758 
    2.0218 	   81.8020 	    2.0000 	   47.0000 	   34.1198 
    1.8692 	   81.8450 	    2.0000 	   47.0000 	   34.1628 
    1.8845 	   81.8860 	    2.0000 	   47.0000 	   34.2038 
    1.8387 	   81.9290 	    2.0000 	   47.0000 	   34.2468 
    1.9455 	   81.9670 	    2.0000 	   47.0000 	   34.2848 
    1.8845 	   82.0070 	    2.0000 	   47.0000 	   34.3248 
    1.9303 	   82.0500 	    2.0000 	   47.0000 	   34.3678 
    1.8845 	   82.0930 	    2.0000 	   47.0000 	   34.4108 
    2.0676 	   82.1350 	    2.0000 	   47.0000 	   34.4528 
    1.8387 	   82.1780 	    2.0000 	   47.0000 	   34.4958 
    1.8387 	   82.2200 	    2.0000 	   47.0000 	   34.5378 
    1.8845 	   82.2620 	    2.0000 	   47.0000 	   34.5798 
    2.1134 	   82.3030 	    2.0000 	   47.0000 	   34.6208 
    2.0066 	   82.3420 	    2.0000 	   47.0000 	   34.6598 
    1.8997 	   82.3790 	    2.0000 	   47.0000 	   34.6968 
    1.9150 	   82.4190 	    2.0000 	   47.0000 	   34.7368 
    1.9303 	   82.4600 	    2.0000 	   47.0000 	   34.7778 
    1.9303 	   82.4990 	    2.0000 	   47.0000 	   34.8168 
    1.9608 	   82.5390 	    2.0000 	   47.0000 	   34.8568 
    1.9913 	   82.5800 	    2.0000 	   47.0000 	   34.8978 
    1.9303 	   82.6210 	    2.0000 	   47.0000 	   34.9388 
    1.8235 	   82.6620 	    2.0000 	   47.0000 	   34.9798 
    1.8692 	   82.7040 	    2.0000 	   47.0000 	   35.0218 
    1.8387 	   82.7480 	    2.0000 	   47.0000 	   35.0658 
    1.8845 	   82.7910 	    2.0000 	   47.0000 	   35.1088 
    1.8235 	   82.8310 	    2.0000 	   47.0000 	   35.1488 
    1.8540 	   82.8730 	    2.0000 	   47.0000 	   35.1908 
    2.0523 	   82.9150 	    2.0000 	   47.0000 	   35.2328 
    1.6556 	   82.9590 	    2.0000 	   47.0000 	   35.2768 
    1.9608 	   82.9990 	    2.0000 	   47.0000 	   35.3168 
    1.9608 	   83.0410 	    2.0000 	   47.0000 	   35.3588 
    1.9760 	   83.0830 	    2.0000 	   47.0000 	   35.4008 
    1.8845 	   83.1230 	    2.0000 	   47.0000 	   35.4408 
    1.9608 	   83.1630 	    2.0000 	   47.0000 	   35.4808 
    1.9760 	   83.2040 	    2.0000 	   47.0000 	   35.5218 
    1.8692 	   83.2480 	    2.0000 	   47.0000 	   35.5658 
    2.0218 	   83.2910 	    2.0000 	   47.0000 	   35.6088 
    1.8845 	   83.3410 	    2.0000 	   47.0000 	   35.6589 
    1.8997 	   83.3830 	    2.0000 	   47.0000 	   35.7009 
    1.9608 	   83.4250 	    2.0000 	   47.0000 	   35.7429 
    1.9608 	   83.4680 	    2.0000 	   47.0000 	   35.7859 
    1.8235 	   83.5070 	    2.0000 	   47.0000 	   35.8249 
    1.9455 	   83.5510 	    2.0000 	   47.0000 	   35.8689 
    1.8997 	   83.5910 	    2.0000 	   47.0000 	   35.9089 
    1.9150 	   83.6320 	    2.0000 	   47.0000 	   35.9499 
    1.8235 	   83.6730 	    2.0000 	   47.0000 	   35.9909 
    1.8540 	   83.7140 	    2.0000 	   47.0000 	   36.0319 
    1.9608 	   83.7560 	    2.0000 	   47.0000 	   36.0739 
    1.9455 	   83.7990 	    2.0000 	   47.0000 	   36.1169 
    2.0218 	   83.8430 	    2.0000 	   47.0000 	   36.1609 
    1.9150 	   83.8860 	    2.0000 	   47.0000 	   36.2039 
    1.9303 	   83.9290 	    2.0000 	   47.0000 	   36.2469 
    1.8692 	   83.9720 	    2.0000 	   47.0000 	   36.2899 
    1.9913 	   84.0140 	    2.0000 	   47.0000 	   36.3319 
    1.9150 	   84.0550 	    2.0000 	   47.0000 	   36.3729 
    1.9455 	   84.1010 	    2.0000 	   47.0000 	   36.4189 
    1.8845 	   84.1430 	    2.0000 	   47.0000 	   36.4609 
    1.8845 	   84.1850 	    2.0000 	   47.0000 	   36.5029 
    1.9913 	   84.2280 	    2.0000 	   47.0000 	   36.5459 
    1.9913 	   84.2700 	    2.0000 	   47.0000 	   36.5879 
    1.9760 	   84.3120 	    2.0000 	   47.0000 	   36.6299 
    1.8235 	   84.3540 	    2.0000 	   47.0000 	   36.6719 
    1.9303 	   84.3960 	    2.0000 	   47.0000 	   36.7139 
    1.9455 	   84.4380 	    2.0000 	   47.0000 	   36.7559 
    1.8387 	   84.4810 	    2.0000 	   47.0000 	   36.7989 
    1.9150 	   84.5240 	    2.0000 	   47.0000 	   36.8419 
    1.9455 	   84.5650 	    2.0000 	   47.0000 	   36.8829 
    1.8845 	   84.6070 	    2.0000 	   47.0000 	   36.9249 
    1.8997 	   84.6460 	    2.0000 	   47.0000 	   36.9639 
    1.9913 	   84.6840 	    2.0000 	   47.0000 	   37.0019 
    1.8540 	   84.7220 	    2.0000 	   47.0000 	   37.0399 
    1.8997 	   84.7600 	    2.0000 	   47.0000 	   37.0779 
    1.9760 	   84.7980 	    2.0000 	   47.0000 	   37.1159 
    1.8082 	   84.8350 	    2.0000 	   47.0000 	   37.1529 
    1.8692 	   84.8730 	    2.0000 	   47.0000 	   37.1909 
    1.9150 	   84.9120 	    2.0000 	   47.0000 	   37.2299 
    1.8997 	   84.9500 	    2.0000 	   47.0000 	   37.2679 
    1.8235 	   84.9910 	    2.0000 	   47.0000 	   37.3089 
    1.8082 	   85.0340 	    2.0000 	   47.0000 	   37.3519 
    1.9608 	   85.0760 	    2.0000 	   47.0000 	   37.3940 
    1.8997 	   85.1170 	    2.0000 	   47.0000 	   37.4350 
    1.8387 	   85.1590 	    2.0000 	   47.0000 	   37.4770 
    1.7472 	   85.2020 	    2.0000 	   47.0000 	   37.5200 
    1.8845 	   85.2450 	    2.0000 	   47.0000 	   37.5630 
    1.7929 	   85.2850 	    2.0000 	   47.0000 	   37.6030 
    1.8387 	   85.3230 	    2.0000 	   47.0000 	   37.6410 
    2.0981 	   85.3610 	    2.0000 	   47.0000 	   37.6790 
    1.7319 	   85.3980 	    2.0000 	   47.0000 	   37.7160 
    1.8845 	   85.4380 	    2.0000 	   47.0000 	   37.7560 
    2.0218 	   85.4810 	    2.0000 	   47.0000 	   37.7990 
    1.7319 	   85.5210 	    2.0000 	   47.0000 	   37.8390 
    1.8845 	   85.5630 	    2.0000 	   47.0000 	   37.8810 
    1.9760 	   85.6040 	    2.0000 	   47.0000 	   37.9220 
    2.0218 	   85.6440 	    2.0000 	   47.0000 	   37.9620 
    1.8540 	   85.6860 	    2.0000 	   47.0000 	   38.0040 
    1.8997 	   85.7280 	    2.0000 	   47.0000 	   38.0460 
    1.9608 	   85.7730 	    2.0000 	   47.0000 	   38.0910 
    1.5640 	   85.8160 	    2.0000 	   47.0000 	   38.1340 
    1.8235 	   85.8580 	    2.0000 	   47.0000 	   38.1760 
    2.0066 	   85.9000 	    2.0000 	   47.0000 	   38.2180 
    1.8997 	   85.9440 	    2.0000 	   47.0000 	   38.2620 
    1.9608 	   85.9860 	    2.0000 	   47.0000 	   38.3040 
    2.0066 	   86.0290 	    2.0000 	   47.0000 	   38.3470 
    1.5793 	   86.0700 	    2.0000 	   47.0000 	   38.3880 
    1.6098 	   86.1140 	    2.0000 	   47.0000 	   38.4320 
    1.7472 	   86.1550 	    2.0000 	   47.0000 	   38.4730 
    1.9150 	   86.1980 	    2.0000 	   47.0000 	   38.5160 
    1.9760 	   86.2400 	    2.0000 	   47.0000 	   38.5580 
    1.8845 	   86.2820 	    2.0000 	   47.0000 	   38.6000 
    1.9303 	   86.3190 	    2.0000 	   47.0000 	   38.6370 
    1.9760 	   86.3580 	    2.0000 	   47.0000 	   38.6760 
    1.8692 	   86.4010 	    2.0000 	   47.0000 	   38.7190 
    2.0371 	   86.4440 	    2.0000 	   47.0000 	   38.7620 
    1.8692 	   86.4810 	    2.0000 	   47.0000 	   38.7990 
    1.6403 	   86.5190 	    2.0000 	   47.0000 	   38.8370 
    1.8235 	   86.5570 	    2.0000 	   47.0000 	   38.8750 
    1.9608 	   86.5960 	    2.0000 	   47.0000 	   38.9140 
    1.8845 	   86.6350 	    2.0000 	   47.0000 	   38.9530 
    1.8235 	   86.6730 	    2.0000 	   47.0000 	   38.9910 
    1.8997 	   86.7120 	    2.0000 	   47.0000 	   39.0300 
    2.1134 	   86.7500 	    2.0000 	   47.0000 	   39.0680 
    1.9150 	   86.7870 	    2.0000 	   47.0000 	   39.1050 
    1.9760 	   86.8240 	    2.0000 	   47.0000 	   39.1421 
    1.7929 	   86.8630 	    2.0000 	   47.0000 	   39.1811 
    1.8692 	   86.9010 	    2.0000 	   47.0000 	   39.2191 
    1.8387 	   86.9390 	    2.0000 	   47.0000 	   39.2571 
    1.9760 	   86.9830 	    2.0000 	   47.0000 	   39.3011 
    1.8540 	   87.0230 	    2.0000 	   47.0000 	   39.3411 
    1.7929 	   87.0630 	    2.0000 	   47.0000 	   39.3811 
    1.9455 	   87.1020 	    2.0000 	   47.0000 	   39.4201 
    1.8082 	   87.1390 	    2.0000 	   47.0000 	   39.4571 
    2.0218 	   87.1770 	    2.0000 	   47.0000 	   39.4951 
    1.9150 	   87.2170 	    2.0000 	   47.0000 	   39.5351 
    1.9913 	   87.2570 	    2.0000 	   47.0000 	   39.5751 
    1.9913 	   87.2950 	    2.0000 	   47.0000 	   39.6131 
    1.8540 	   87.3400 	    2.0000 	   47.0000 	   39.6581 
    1.9760 	   87.3780 	    2.0000 	   47.0000 	   39.6961 
    1.8692 	   87.4180 	    2.0000 	   47.0000 	   39.7361 
    1.8997 	   87.4570 	    2.0000 	   47.0000 	   39.7751 
    1.8540 	   87.4950 	    2.0000 	   47.0000 	   39.8131 
    2.0523 	   87.5340 	    2.0000 	   47.0000 	   39.8521 
    1.8692 	   87.5730 	    2.0000 	   47.0000 	   39.8911 
    1.9303 	   87.6120 	    2.0000 	   47.0000 	   39.9301 
    1.9760 	   87.6490 	    2.0000 	   47.0000 	   39.9671 
    2.0523 	   87.6870 	    2.0000 	   47.0000 	   40.0051 
    1.8235 	   87.7250 	    2.0000 	   47.0000 	   40.0431 
    1.9303 	   87.7640 	    2.0000 	   47.0000 	   40.0821 
    2.0066 	   87.8020 	    2.0000 	   47.0000 	   40.1201 
    1.9303 	   87.8400 	    2.0000 	   47.0000 	   40.1581 
    1.8540 	   87.8800 	    2.0000 	   47.0000 	   40.1981 
    1.8387 	   87.9210 	    2.0000 	   47.0000 	   40.2391 
    1.8997 	   87.9610 	    2.0000 	   47.0000 	   40.2791 
    1.9608 	   88.0040 	    2.0000 	   47.0000 	   40.3221 
    1.8845 	   88.0460 	    2.0000 	   47.0000 	   40.3641 
    1.9303 	   88.0920 	    2.0000 	   47.0000 	   40.4101 
    1.9608 	   88.1360 	    2.0000 	   47.0000 	   40.4541 
    2.0371 	   88.1770 	    2.0000 	   47.0000 	   40.4951 
    1.6556 	   88.2200 	    2.0000 	   47.0000 	   40.5381 
    1.9760 	   88.2650 	    2.0000 	   47.0000 	   40.5831 
    1.7929 	   88.3050 	    2.0000 	   47.0000 	   40.6231 
    1.8845 	   88.3440 	    2.0000 	   47.0000 	   40.6621 
    1.8540 	   88.3820 	    2.0000 	   47.0000 	   40.7001 
    1.9303 	   88.4210 	    2.0000 	   47.0000 	   40.7391 
    1.7624 	   88.4590 	    2.0000 	   47.0000 	   40.7771 
    1.8235 	   88.4980 	    2.0000 	   47.0000 	   40.8161 
    2.0371 	   88.5360 	    2.0000 	   47.0000 	   40.8541 
    2.0829 	   88.5750 	    2.0000 	   47.0000 	   40.8932 
    2.0066 	   88.6140 	    2.0000 	   47.0000 	   40.9322 
    1.8540 	   88.6530 	    2.0000 	   47.0000 	   40.9712 
    1.9608 	   88.6920 	    2.0000 	   47.0000 	   41.0102 
    1.8235 	   88.7300 	    2.0000 	   47.0000 	   41.0482 
    1.8692 	   88.7700 	    2.0000 	   47.0000 	   41.0882 
    1.8540 	   88.8120 	    2.0000 	   47.0000 	   41.1302 
    1.9150 	   88.8550 	    2.0000 	   47.0000 	   41.1732 
    1.9913 	   88.8980 	    2.0000 	   47.0000 	   41.2162 
    1.8997 	   88.9370 	    2.0000 	   47.0000 	   41.2552 
    1.9608 	   88.9750 	    2.0000 	   47.0000 	   41.2932 
    1.8235 	   89.0140 	    2.0000 	   47.0000 	   41.3322 
    2.1286 	   89.0530 	    2.0000 	   47.0000 	   41.3712 
    1.8997 	   89.0910 	    2.0000 	   47.0000 	   41.4092 
    1.9608 	   89.1300 	    2.0000 	   47.0000 	   41.4482 
    1.7472 	   89.1690 	    2.0000 	   47.0000 	   41.4872 
    1.8692 	   89.2100 	    2.0000 	   47.0000 	   41.5282 
    1.8845 	   89.2520 	    2.0000 	   47.0000 	   41.5702 
    1.7777 	   89.2960 	    2.0000 	   47.0000 	   41.6142 
    1.9455 	   89.3400 	    2.0000 	   47.0000 	   41.6582 
    1.8997 	   89.3840 	    2.0000 	   47.0000 	   41.7022 
    2.0371 	   89.4270 	    2.0000 	   47.0000 	   41.7452 
    1.9150 	   89.4680 	    2.0000 	   47.0000 	   41.7862 
    1.8845 	   89.5080 	    2.0000 	   47.0000 	   41.8262 
    1.8997 	   89.5520 	    2.0000 	   47.0000 	   41.8702 
    1.8997 	   89.5930 	    2.0000 	   47.0000 	   41.9112 
    1.9760 	   89.6360 	    2.0000 	   47.0000 	   41.9542 
    1.9760 	   89.6790 	    2.0000 	   47.0000 	   41.9972 
    1.8845 	   89.7200 	    2.0000 	   47.0000 	   42.0382 
    1.8692 	   89.7650 	    2.0000 	   47.0000 	   42.0832 
    1.9150 	   89.8070 	    2.0000 	   47.0000 	   42.1252 
    1.9608 	   89.8500 	    2.0000 	   47.0000 	   42.1682 
    1.7014 	   89.8920 	    2.0000 	   47.0000 	   42.2102 
    1.8387 	   89.9380 	    2.0000 	   47.0000 	   42.2562 
    1.9760 	   89.9810 	    2.0000 	   47.0000 	   42.2992 
    1.8845 	   90.0230 	    2.0000 	   47.0000 	   42.3412 
    1.8692 	   90.0650 	    2.0000 	   47.0000 	   42.3832 
    1.6556 	   90.1110 	    2.0000 	   47.0000 	   42.4292 
    1.5946 	   90.1520 	    2.0000 	   47.0000 	   42.4702 
    1.9150 	   90.1940 	    2.0000 	   47.0000 	   42.5122 
    1.7319 	   90.2370 	    2.0000 	   47.0000 	   42.5552 
    1.7929 	   90.2810 	    2.0000 	   47.0000 	   42.5993 
    1.9760 	   90.3210 	    2.0000 	   47.0000 	   42.6393 
    1.8845 	   90.3610 	    2.0000 	   47.0000 	   42.6793 
    1.9913 	   90.4050 	    2.0000 	   47.0000 	   42.7233 
    1.8845 	   90.4480 	    2.0000 	   47.0000 	   42.7663 
    1.9150 	   90.4910 	    2.0000 	   47.0000 	   42.8093 
    2.0066 	   90.5330 	    2.0000 	   47.0000 	   42.8513 
    1.8692 	   90.5750 	    2.0000 	   47.0000 	   42.8933 
    1.9760 	   90.6170 	    2.0000 	   47.0000 	   42.9353 
    1.9150 	   90.6600 	    2.0000 	   47.0000 	   42.9783 
    2.0371 	   90.7040 	    2.0000 	   47.0000 	   43.0223 
    1.9913 	   90.7480 	    2.0000 	   47.0000 	   43.0663 
    1.8540 	   90.7900 	    2.0000 	   47.0000 	   43.1083 
    1.9150 	   90.8340 	    2.0000 	   47.0000 	   43.1523 
    1.8387 	   90.8760 	    2.0000 	   47.0000 	   43.1943 
    1.9150 	   90.9190 	    2.0000 	   47.0000 	   43.2373 
    1.8845 	   90.9610 	    2.0000 	   47.0000 	   43.2793 
    1.9303 	   91.0040 	    2.0000 	   47.0000 	   43.3223 
    1.8387 	   91.0460 	    2.0000 	   47.0000 	   43.3643 
    1.9303 	   91.0880 	    2.0000 	   47.0000 	   43.4063 
    1.7777 	   91.1290 	    2.0000 	   47.0000 	   43.4473 
    1.8845 	   91.1690 	    2.0000 	   47.0000 	   43.4873 
    1.8540 	   91.2120 	    2.0000 	   47.0000 	   43.5303 
    1.9150 	   91.2550 	    2.0000 	   47.0000 	   43.5733 
    1.7472 	   91.2960 	    2.0000 	   47.0000 	   43.6143 
    2.0066 	   91.3420 	    2.0000 	   47.0000 	   43.6603 
    2.0066 	   91.3830 	    2.0000 	   47.0000 	   43.7013 
    1.8997 	   91.4250 	    2.0000 	   47.0000 	   43.7433 
    1.8540 	   91.4680 	    2.0000 	   47.0000 	   43.7863 
    1.7777 	   91.5130 	    2.0000 	   47.0000 	   43.8313 
    1.9150 	   91.5550 	    2.0000 	   47.0000 	   43.8733 
    2.0829 	   91.5980 	    2.0000 	   47.0000 	   43.9163 
    1.8845 	   91.6400 	    2.0000 	   47.0000 	   43.9583 
    1.7929 	   91.6850 	    2.0000 	   47.0000 	   44.0033 
    1.9303 	   91.7280 	    2.0000 	   47.0000 	   44.0463 
    1.8997 	   91.7710 	    2.0000 	   47.0000 	   44.0893 
    1.9150 	   91.8150 	    2.0000 	   47.0000 	   44.1333 
    1.9608 	   91.8580 	    2.0000 	   47.0000 	   44.1763 
    1.9608 	   91.9000 	    2.0000 	   47.0000 	   44.2183 
    1.8387 	   91.9410 	    2.0000 	   47.0000 	   44.2593 
    1.8997 	   91.9800 	    2.0000 	   47.0000 	   44.2983 
    1.8692 	   92.0210 	    2.0000 	   47.0000 	   44.3393 
    1.8387 	   92.0600 	    2.0000 	   47.0000 	   44.3783 
    1.8692 	   92.1020 	    2.0000 	   47.0000 	   44.4204 
    1.7777 	   92.1410 	    2.0000 	   47.0000 	   44.4584 
    1.9150 	   92.1800 	    2.0000 	   47.0000 	   44.4974 
    1.9608 	   92.2180 	    2.0000 	   47.0000 	   44.5354 
    1.9608 	   92.2580 	    2.0000 	   47.0000 	   44.5754 
    1.9303 	   92.2980 	    2.0000 	   47.0000 	   44.6154 
    1.7319 	   92.3420 	    2.0000 	   47.0000 	   44.6594 
    1.8540 	   92.3850 	    2.0000 	   47.0000 	   44.7024 
    1.8692 	   92.4290 	    2.0000 	   47.0000 	   44.7464 
    1.8692 	   92.4710 	    2.0000 	   47.0000 	   44.7884 
    1.9150 	   92.5120 	    2.0000 	   47.0000 	   44.8294 
    1.8387 	   92.5520 	    2.0000 	   47.0000 	   44.8694 
    1.8387 	   92.5910 	    2.0000 	   47.0000 	   44.9084 
    1.6861 	   92.6290 	    2.0000 	   47.0000 	   44.9464 
    1.9455 	   92.6720 	    2.0000 	   47.0000 	   44.9894 
    1.6861 	   92.7140 	    2.0000 	   47.0000 	   45.0314 
    1.8845 	   92.7530 	    2.0000 	   47.0000 	   45.0704 
    1.9150 	   92.7960 	    2.0000 	   47.0000 	   45.1134 
    1.6556 	   92.8400 	    2.0000 	   47.0000 	   45.1574 
    1.8997 	   92.8810 	    2.0000 	   47.0000 	   45.1984 
    1.8997 	   92.9190 	    2.0000 	   47.0000 	   45.2364 
    1.9455 	   92.9570 	    2.0000 	   47.0000 	   45.2744 
    1.9608 	   92.9950 	    2.0000 	   47.0000 	   45.3124 
    1.5946 	   93.0340 	    2.0000 	   47.0000 	   45.3514 
    1.8082 	   93.0720 	    2.0000 	   47.0000 	   45.3894 
    1.9913 	   93.1110 	    2.0000 	   47.0000 	   45.4284 
    1.8845 	   93.1500 	    2.0000 	   47.0000 	   45.4674 
    1.7624 	   93.1890 	    2.0000 	   47.0000 	   45.5064 
    1.9760 	   93.2280 	    2.0000 	   47.0000 	   45.5454 
    1.9913 	   93.2730 	    2.0000 	   47.0000 	   45.5904 
    2.0218 	   93.3160 	    2.0000 	   47.0000 	   45.6334 
    1.8540 	   93.3580 	    2.0000 	   47.0000 	   45.6754 
    1.8845 	   93.4000 	    2.0000 	   47.0000 	   45.7174 
    1.8387 	   93.4410 	    2.0000 	   47.0000 	   45.7584 
    1.9913 	   93.4860 	    2.0000 	   47.0000 	   45.8034 
    1.8387 	   93.5310 	    2.0000 	   47.0000 	   45.8484 
    1.9303 	   93.5760 	    2.0000 	   47.0000 	   45.8934 
    1.8540 	   93.6160 	    2.0000 	   47.0000 	   45.9334 
    1.9913 	   93.6590 	    2.0000 	   47.0000 	   45.9764 
    1.8997 	   93.7030 	    2.0000 	   47.0000 	   46.0204 
    1.8692 	   93.7470 	    2.0000 	   47.0000 	   46.0644 
    1.9913 	   93.7900 	    2.0000 	   47.0000 	   46.1074 
    1.8387 	   93.8320 	    2.0000 	   47.0000 	   46.1495 
    1.8692 	   93.8770 	    2.0000 	   47.0000 	   46.1945 
    2.0371 	   93.9190 	    2.0000 	   47.0000 	   46.2365 
    1.8540 	   93.9630 	    2.0000 	   47.0000 	   46.2805 
    1.8997 	   94.0040 	    2.0000 	   47.0000 	   46.3215 
    1.9150 	   94.0460 	    2.0000 	   47.0000 	   46.3635 
    1.8387 	   94.0930 	    2.0000 	   47.0000 	   46.4105 
    1.5488 	   94.1340 	    2.0000 	   47.0000 	   46.4515 
    1.9608 	   94.1730 	    2.0000 	   47.0000 	   46.4895 
    2.0066 	   94.2110 	    2.0000 	   47.0000 	   46.5285 
    1.9150 	   94.2490 	    2.0000 	   47.0000 	   46.5665 
    1.8845 	   94.2880 	    2.0000 	   47.0000 	   46.6055 
    1.8235 	   94.3310 	    2.0000 	   47.0000 	   46.6485 
    2.0981 	   94.3740 	    2.0000 	   47.0000 	   46.6915 
    1.9760 	   94.4160 	    2.0000 	   47.0000 	   46.7335 
    1.9760 	   94.4600 	    2.0000 	   47.0000 	   46.7775 
    1.9303 	   94.5040 	    2.0000 	   47.0000 	   46.8215 
    1.8692 	   94.5450 	    2.0000 	   47.0000 	   46.8625 
    1.6556 	   94.5880 	    2.0000 	   47.0000 	   46.9055 
    1.9608 	   94.6300 	    2.0000 	   47.0000 	   46.9475 
    1.8692 	   94.6720 	    2.0000 	   47.0000 	   46.9895 
    2.0066 	   94.7140 	    2.0000 	   47.0000 	   47.0315 
    1.8997 	   94.7540 	    2.0000 	   47.0000 	   47.0715 
    1.7319 	   94.7920 	    2.0000 	   47.0000 	   47.1095 
    1.8540 	   94.8300 	    2.0000 	   47.0000 	   47.1475 
    1.8540 	   94.8710 	    2.0000 	   47.0000 	   47.1885 
    1.8845 	   94.9140 	    2.0000 	   47.0000 	   47.2315 
    2.0066 	   94.9560 	    2.0000 	   47.0000 	   47.2735 
    2.0218 	   94.9970 	    2.0000 	   47.0000 	   47.3145 
    2.0066 	   95.0380 	    2.0000 	   47.0000 	   47.3555 
    1.7929 	   95.0770 	    2.0000 	   47.0000 	   47.3945 
    1.7624 	   95.1150 	    2.0000 	   47.0000 	   47.4325 
    1.7777 	   95.1530 	    2.0000 	   47.0000 	   47.4705 
    1.7319 	   95.1920 	    2.0000 	   47.0000 	   47.5095 
    1.8387 	   95.2330 	    2.0000 	   47.0000 	   47.5505 
    1.8540 	   95.2760 	    2.0000 	   47.0000 	   47.5935 
    1.7472 	   95.3190 	    2.0000 	   47.0000 	   47.6365 
    1.7777 	   95.3610 	    2.0000 	   47.0000 	   47.6785 
    1.6403 	   95.4050 	    2.0000 	   47.0000 	   47.7225 
    1.7319 	   95.4480 	    2.0000 	   47.0000 	   47.7655 
    1.4878 	   95.4920 	    2.0000 	   47.0000 	   47.8095 
    1.6709 	   95.5330 	    2.0000 	   47.0000 	   47.8505 
    1.7166 	   95.5750 	    2.0000 	   47.0000 	   47.8926 
    1.3657 	   95.6160 	    2.0000 	   47.0000 	   47.9336 
    1.5488 	   95.6570 	    2.0000 	   47.0000 	   47.9746 
    1.7472 	   95.6990 	    2.0000 	   47.0000 	   48.0166 
    1.5946 	   95.7420 	    2.0000 	   47.0000 	   48.0596 
    1.7166 	   95.7840 	    2.0000 	   47.0000 	   48.1016 
    1.5946 	   95.8270 	    2.0000 	   47.0000 	   48.1446 
    1.7472 	   95.8700 	    2.0000 	   47.0000 	   48.1876 
    1.4725 	   95.9150 	    2.0000 	   47.0000 	   48.2326 
    1.5946 	   95.9560 	    2.0000 	   47.0000 	   48.2736 
    1.5335 	   96.0010 	    2.0000 	   47.0000 	   48.3186 
    1.5793 	   96.0450 	    2.0000 	   47.0000 	   48.3626 
    1.5640 	   96.0930 	    2.0000 	   47.0000 	   48.4106 
    1.6861 	   96.1360 	    2.0000 	   47.0000 	   48.4536 
    1.5488 	   96.1790 	    2.0000 	   47.0000 	   48.4966 
    1.4725 	   96.2210 	    2.0000 	   47.0000 	   48.5386 
    1.5030 	   96.2620 	    2.0000 	   47.0000 	   48.5796 
    1.3962 	   96.3020 	    2.0000 	   47.0000 	   48.6196 
    1.6251 	   96.3420 	    2.0000 	   47.0000 	   48.6596 
    1.4115 	   96.3810 	    2.0000 	   47.0000 	   48.6986 
    1.4725 	   96.4220 	    2.0000 	   47.0000 	   48.7396 
    1.4420 	   96.4600 	    2.0000 	   47.0000 	   48.7776 
    1.6098 	   96.4990 	    2.0000 	   47.0000 	   48.8166 
    1.4115 	   96.5380 	    2.0000 	   47.0000 	   48.8556 
    1.5946 	   96.5770 	    2.0000 	   47.0000 	   48.8946 
    1.4725 	   96.6160 	    2.0000 	   47.0000 	   48.9336 
    1.4725 	   96.6560 	    2.0000 	   47.0000 	   48.9736 
    1.5030 	   96.6940 	    2.0000 	   47.0000 	   49.0116 
    1.5488 	   96.7380 	    2.0000 	   47.0000 	   49.0556 
    1.4267 	   96.7810 	    2.0000 	   47.0000 	   49.0986 
    1.3962 	   96.8230 	    2.0000 	   47.0000 	   49.1406 
    1.3657 	   96.8640 	    2.0000 	   47.0000 	   49.1816 
    1.3962 	   96.9030 	    2.0000 	   47.0000 	   49.2206 
    1.4420 	   96.9420 	    2.0000 	   47.0000 	   49.2596 
    1.5030 	   96.9800 	    2.0000 	   47.0000 	   49.2976 
    1.4115 	   97.0190 	    2.0000 	   47.0000 	   49.3366 
    1.4115 	   97.0580 	    2.0000 	   47.0000 	   49.3756 
    1.4878 	   97.0970 	    2.0000 	   47.0000 	   49.4146 
    1.4115 	   97.1370 	    2.0000 	   47.0000 	   49.4546 
    1.4267 	   97.1780 	    2.0000 	   47.0000 	   49.4956 
    1.3657 	   97.2220 	    2.0000 	   47.0000 	   49.5396 
    1.3046 	   97.2680 	    2.0000 	   47.0000 	   49.5856 
    1.3962 	   97.3120 	    2.0000 	   47.0000 	   49.6287 
    1.3657 	   97.3560 	    2.0000 	   47.0000 	   49.6737 
    1.3504 	   97.3990 	    2.0000 	   47.0000 	   49.7167 
    1.3046 	   97.4430 	    2.0000 	   47.0000 	   49.7607 
    1.3046 	   97.4840 	    2.0000 	   47.0000 	   49.8017 
    1.4115 	   97.5270 	    2.0000 	   47.0000 	   49.8447 
    1.3504 	   97.5690 	    2.0000 	   47.0000 	   49.8867 
    1.3199 	   97.6150 	    2.0000 	   47.0000 	   49.9327 
    1.3199 	   97.6590 	    2.0000 	   47.0000 	   49.9767 
    1.3504 	   97.7040 	    2.0000 	   47.0000 	   50.0217 
    1.2741 	   97.7460 	    2.0000 	   47.0000 	   50.0637 
    1.2894 	   97.7930 	    2.0000 	   47.0000 	   50.1107 
    1.3809 	   97.8330 	    2.0000 	   47.0000 	   50.1507 
    1.2589 	   97.8730 	    2.0000 	   47.0000 	   50.1907 
    1.5488 	   97.9120 	    2.0000 	   47.0000 	   50.2297 
    1.3504 	   97.9510 	    2.0000 	   47.0000 	   50.2687 
    1.2741 	   97.9920 	    2.0000 	   47.0000 	   50.3097 
    1.2589 	   98.0310 	    2.0000 	   47.0000 	   50.3487 
    1.2436 	   98.0710 	    2.0000 	   47.0000 	   50.3887 
    1.3657 	   98.1140 	    2.0000 	   47.0000 	   50.4317 
    1.2284 	   98.1540 	    2.0000 	   47.0000 	   50.4717 
    1.3199 	   98.1940 	    2.0000 	   47.0000 	   50.5117 
    1.5030 	   98.2330 	    2.0000 	   47.0000 	   50.5507 
    1.2589 	   98.2730 	    2.0000 	   47.0000 	   50.5907 
    1.3504 	   98.3120 	    2.0000 	   47.0000 	   50.6297 
    1.3352 	   98.3510 	    2.0000 	   47.0000 	   50.6687 
    1.4420 	   98.3900 	    2.0000 	   47.0000 	   50.7077 
    1.1826 	   98.4310 	    2.0000 	   47.0000 	   50.7487 
    1.3046 	   98.4730 	    2.0000 	   47.0000 	   50.7907 
    1.1826 	   98.5140 	    2.0000 	   47.0000 	   50.8317 
    1.3046 	   98.5590 	    2.0000 	   47.0000 	   50.8767 
    1.4267 	   98.5990 	    2.0000 	   47.0000 	   50.9167 
    1.3199 	   98.6380 	    2.0000 	   47.0000 	   50.9557 
    1.3504 	   98.6780 	    2.0000 	   47.0000 	   50.9957 
    1.2741 	   98.7170 	    2.0000 	   47.0000 	   51.0347 
    1.1673 	   98.7560 	    2.0000 	   47.0000 	   51.0737 
    1.3199 	   98.7960 	    2.0000 	   47.0000 	   51.1137 
    1.2894 	   98.8350 	    2.0000 	   47.0000 	   51.1527 
    1.3809 	   98.8740 	    2.0000 	   47.0000 	   51.1917 
    1.1673 	   98.9130 	    2.0000 	   47.0000 	   51.2307 
    1.2894 	   98.9520 	    2.0000 	   47.0000 	   51.2697 
    1.1521 	   98.9910 	    2.0000 	   47.0000 	   51.3087 
    1.1826 	   99.0300 	    2.0000 	   47.0000 	   51.3477 
    1.1673 	   99.0690 	    2.0000 	   47.0000 	   51.3867 
    1.1368 	   99.1120 	    2.0000 	   47.0000 	   51.4298 
    1.2589 	   99.1560 	    2.0000 	   47.0000 	   51.4738 
    1.0910 	   99.2010 	    2.0000 	   47.0000 	   51.5188 
    1.1673 	   99.2420 	    2.0000 	   47.0000 	   51.5598 
    1.2589 	   99.2810 	    2.0000 	   47.0000 	   51.5988 
    1.3046 	   99.3210 	    2.0000 	   47.0000 	   51.6388 
    1.1368 	   99.3600 	    2.0000 	   47.0000 	   51.6778 
    1.2894 	   99.4010 	    2.0000 	   47.0000 	   51.7188 
    1.1978 	   99.4460 	    2.0000 	   47.0000 	   51.7638 
    1.2741 	   99.4880 	    2.0000 	   47.0000 	   51.8058 
    1.1978 	   99.5270 	    2.0000 	   47.0000 	   51.8448 
    1.1521 	   99.5690 	    2.0000 	   47.0000 	   51.8868 
    1.3046 	   99.6120 	    2.0000 	   47.0000 	   51.9298 
    1.2436 	   99.6520 	    2.0000 	   47.0000 	   51.9698 
    1.1215 	   99.6940 	    2.0000 	   47.0000 	   52.0118 
    1.1215 	   99.7340 	    2.0000 	   47.0000 	   52.0518 
    1.1063 	   99.7730 	    2.0000 	   47.0000 	   52.0908 
    1.1826 	   99.8110 	    2.0000 	   47.0000 	   52.1288 
    0.9842 	   99.8490 	    2.0000 	   47.0000 	   52.1668 
    1.1673 	   99.8870 	    2.0000 	   47.0000 	   52.2048 
    1.2131 	   99.9290 	    2.0000 	   47.0000 	   52.2468 
    1.0452 	   99.9700 	    2.0000 	   47.0000 	   52.2878 
    0.9995 	  100.0120 	    2.0000 	   47.0000 	   52.3298 
    1.2131 	  100.0570 	    2.0000 	   47.0000 	   52.3748 
    1.1673 	  100.1050 	    2.0000 	   47.0000 	   52.4228 
    1.1368 	  100.1510 	    2.0000 	   47.0000 	   52.4688 
    1.1673 	  100.1930 	    2.0000 	   47.0000 	   52.5108 
    1.2284 	  100.2390 	    2.0000 	   47.0000 	   52.5568 
    1.2589 	  100.2830 	    2.0000 	   47.0000 	   52.6008 
    1.1521 	  100.3260 	    2.0000 	   47.0000 	   52.6438 
    1.1215 	  100.3730 	    2.0000 	   47.0000 	   52.6908 
    1.2284 	  100.4150 	    2.0000 	   47.0000 	   52.7328 
    0.9842 	  100.4580 	    2.0000 	   47.0000 	   52.7758 
    1.2436 	  100.5040 	    2.0000 	   47.0000 	   52.8218 
    1.0758 	  100.5470 	    2.0000 	   47.0000 	   52.8648 
    1.0452 	  100.5930 	    2.0000 	   47.0000 	   52.9108 
    1.1063 	  100.6360 	    2.0000 	   47.0000 	   52.9538 
    0.9537 	  100.6800 	    2.0000 	   47.0000 	   52.9978 
    1.0147 	  100.7220 	    2.0000 	   47.0000 	   53.0398 
    1.1368 	  100.7660 	    2.0000 	   47.0000 	   53.0838 
    1.0758 	  100.8080 	    2.0000 	   47.0000 	   53.1259 
    1.0605 	  100.8490 	    2.0000 	   47.0000 	   53.1669 
    1.0605 	  100.8930 	    2.0000 	   47.0000 	   53.2109 
    0.9842 	  100.9380 	    2.0000 	   47.0000 	   53.2559 
    1.0910 	  100.9820 	    2.0000 	   47.0000 	   53.2999 
    1.0452 	  101.0250 	    2.0000 	   47.0000 	   53.3429 
    1.0452 	  101.0700 	    2.0000 	   47.0000 	   53.3879 
    1.0605 	  101.1160 	    2.0000 	   47.0000 	   53.4339 
    1.0452 	  101.1610 	    2.0000 	   47.0000 	   53.4789 
    1.0147 	  101.2060 	    2.0000 	   47.0000 	   53.5239 
    1.0910 	  101.2510 	    2.0000 	   47.0000 	   53.5689 
    1.0452 	  101.2930 	    2.0000 	   47.0000 	   53.6109 
    1.1368 	  101.3410 	    2.0000 	   47.0000 	   53.6589 
    1.1368 	  101.3820 	    2.0000 	   47.0000 	   53.6999 
    0.9842 	  101.4260 	    2.0000 	   47.0000 	   53.7439 
    1.1521 	  101.4690 	    2.0000 	   47.0000 	   53.7869 
    0.9537 	  101.5090 	    2.0000 	   47.0000 	   53.8269 
    0.9842 	  101.5480 	    2.0000 	   47.0000 	   53.8659 
    1.0147 	  101.5880 	    2.0000 	   47.0000 	   53.9059 
    1.1063 	  101.6280 	    2.0000 	   47.0000 	   53.9459 
    0.9842 	  101.6660 	    2.0000 	   47.0000 	   53.9839 
    0.9232 	  101.7060 	    2.0000 	   47.0000 	   54.0239 
    1.2131 	  101.7450 	    2.0000 	   47.0000 	   54.0629 
    0.9842 	  101.7840 	    2.0000 	   47.0000 	   54.1019 
    0.9995 	  101.8250 	    2.0000 	   47.0000 	   54.1429 
    0.9842 	  101.8650 	    2.0000 	   47.0000 	   54.1829 
    1.1673 	  101.9040 	    2.0000 	   47.0000 	   54.2219 
    0.9689 	  101.9440 	    2.0000 	   47.0000 	   54.2619 
    1.1826 	  101.9850 	    2.0000 	   47.0000 	   54.3029 
    0.9537 	  102.0240 	    2.0000 	   47.0000 	   54.3419 
    0.9232 	  102.0630 	    2.0000 	   47.0000 	   54.3809 
    0.9232 	  102.1030 	    2.0000 	   47.0000 	   54.4209 
    0.9384 	  102.1470 	    2.0000 	   47.0000 	   54.4649 
    1.0300 	  102.1910 	    2.0000 	   47.0000 	   54.5089 
    0.9384 	  102.2350 	    2.0000 	   47.0000 	   54.5529 
    0.9842 	  102.2810 	    2.0000 	   47.0000 	   54.5989 
    1.1063 	  102.3240 	    2.0000 	   47.0000 	   54.6419 
    0.8164 	  102.3700 	    2.0000 	   47.0000 	   54.6879 
    0.9995 	  102.4160 	    2.0000 	   47.0000 	   54.7339 
    1.0605 	  102.4600 	    2.0000 	   47.0000 	   54.7779 
    0.9995 	  102.5050 	    2.0000 	   47.0000 	   54.8229 
    0.9995 	  102.5490 	    2.0000 	   47.0000 	   54.8670 
    0.9384 	  102.5990 	    2.0000 	   47.0000 	   54.9170 
    0.9842 	  102.6420 	    2.0000 	   47.0000 	   54.9600 
    0.9537 	  102.6810 	    2.0000 	   47.0000 	   54.9990 
    1.1521 	  102.7200 	    2.0000 	   47.0000 	   55.0380 
    1.0147 	  102.7610 	    2.0000 	   47.0000 	   55.0790 
    1.1063 	  102.8010 	    2.0000 	   47.0000 	   55.1190 
    1.0452 	  102.8410 	    2.0000 	   47.0000 	   55.1590 
    0.9079 	  102.8800 	    2.0000 	   47.0000 	   55.1980 
    0.9995 	  102.9200 	    2.0000 	   47.0000 	   55.2380 
    0.9384 	  102.9600 	    2.0000 	   47.0000 	   55.2780 
    0.9537 	  103.0000 	    2.0000 	   47.0000 	   55.3180 
    0.9232 	  103.0390 	    2.0000 	   47.0000 	   55.3570 
    0.9384 	  103.0790 	    2.0000 	   47.0000 	   55.3970 
    0.9842 	  103.1180 	    2.0000 	   47.0000 	   55.4360 
    0.9232 	  103.1580 	    2.0000 	   47.0000 	   55.4760 
    1.1215 	  103.1970 	    2.0000 	   47.0000 	   55.5150 
    0.9384 	  103.2360 	    2.0000 	   47.0000 	   55.5540 
    0.9689 	  103.2760 	    2.0000 	   47.0000 	   55.5940 
    0.7706 	  103.3160 	    2.0000 	   47.0000 	   55.6330 
    0.9079 	  103.3560 	    2.0000 	   47.0000 	   55.6740 
    0.9689 	  103.3950 	    2.0000 	   47.0000 	   55.7130 
    0.9537 	  103.4350 	    2.0000 	   47.0000 	   55.7530 
    0.8774 	  103.4750 	    2.0000 	   47.0000 	   55.7930 
    1.0147 	  103.5140 	    2.0000 	   47.0000 	   55.8320 
    0.9995 	  103.5540 	    2.0000 	   47.0000 	   55.8720 
    0.9232 	  103.5940 	    2.0000 	   47.0000 	   55.9120 
    0.9384 	  103.6340 	    2.0000 	   47.0000 	   55.9520 
    0.8164 	  103.6740 	    2.0000 	   47.0000 	   55.9920 
    0.5570 	  103.7130 	    2.0000 	   47.0000 	   56.0310 
    1.0147 	  103.7520 	    2.0000 	   47.0000 	   56.0700 
    0.9232 	  103.7930 	    2.0000 	   47.0000 	   56.1110 
    0.8469 	  103.8330 	    2.0000 	   47.0000 	   56.1510 
    1.0910 	  103.8720 	    2.0000 	   47.0000 	   56.1900 
    0.8774 	  103.9120 	    2.0000 	   47.0000 	   56.2300 
    0.9232 	  103.9520 	    2.0000 	   47.0000 	   56.2700 
    0.9537 	  103.9920 	    2.0000 	   47.0000 	   56.3100 
    0.8621 	  104.0320 	    2.0000 	   47.0000 	   56.3500 
    0.9995 	  104.0710 	    2.0000 	   47.0000 	   56.3890 
    0.9384 	  104.1110 	    2.0000 	   47.0000 	   56.4280 
    0.9842 	  104.1500 	    2.0000 	   47.0000 	   56.4680 
    0.9232 	  104.1920 	    2.0000 	   47.0000 	   56.5100 
    0.9689 	  104.2320 	    2.0000 	   47.0000 	   56.5500 
    0.9537 	  104.2720 	    2.0000 	   47.0000 	   56.5900 
    0.9232 	  104.3110 	    2.0000 	   47.0000 	   56.6291 
    0.9232 	  104.3510 	    2.0000 	   47.0000 	   56.6691 
    0.6485 	  104.3910 	    2.0000 	   47.0000 	   56.7091 
    1.0758 	  104.4310 	    2.0000 	   47.0000 	   56.7491 
    0.9384 	  104.4700 	    2.0000 	   47.0000 	   56.7881 
    0.9232 	  104.5130 	    2.0000 	   47.0000 	   56.8311 
    0.9995 	  104.5570 	    2.0000 	   47.0000 	   56.8751 
    0.8927 	  104.6020 	    2.0000 	   47.0000 	   56.9201 
    0.8164 	  104.6450 	    2.0000 	   47.0000 	   56.9631 
    0.9384 	  104.6900 	    2.0000 	   47.0000 	   57.0081 
    0.7553 	  104.7350 	    2.0000 	   47.0000 	   57.0531 
    0.8469 	  104.7800 	    2.0000 	   47.0000 	   57.0981 
    0.5264 	  104.8250 	    2.0000 	   47.0000 	   57.1431 
    0.8011 	  104.8660 	    2.0000 	   47.0000 	   57.1841 
    0.8316 	  104.9050 	    2.0000 	   47.0000 	   57.2231 
    0.9384 	  104.9490 	    2.0000 	   47.0000 	   57.2671 
    1.0300 	  104.9940 	    2.0000 	   47.0000 	   57.3121 
    0.8927 	  105.0370 	    2.0000 	   47.0000 	   57.3551 
    0.8164 	  105.0820 	    2.0000 	   47.0000 	   57.4001 
    0.8774 	  105.1310 	    2.0000 	   47.0000 	   57.4491 
    0.8774 	  105.1730 	    2.0000 	   47.0000 	   57.4911 
    0.9384 	  105.2180 	    2.0000 	   47.0000 	   57.5361 
    0.8621 	  105.2620 	    2.0000 	   47.0000 	   57.5801 
    0.9079 	  105.3040 	    2.0000 	   47.0000 	   57.6221 
    0.8469 	  105.3440 	    2.0000 	   47.0000 	   57.6621 
    0.8469 	  105.3840 	    2.0000 	   47.0000 	   57.7021 
    0.7706 	  105.4240 	    2.0000 	   47.0000 	   57.7421 
    0.8774 	  105.4640 	    2.0000 	   47.0000 	   57.7821 
    0.6943 	  105.5030 	    2.0000 	   47.0000 	   57.8211 
    0.7553 	  105.5450 	    2.0000 	   47.0000 	   57.8631 
    0.9842 	  105.5860 	    2.0000 	   47.0000 	   57.9041 
    0.8927 	  105.6260 	    2.0000 	   47.0000 	   57.9441 
    0.9079 	  105.6710 	    2.0000 	   47.0000 	   57.9891 
    0.9384 	  105.7160 	    2.0000 	   47.0000 	   58.0341 
    0.8774 	  105.7570 	    2.0000 	   47.0000 	   58.0751 
    0.5722 	  105.7960 	    2.0000 	   47.0000 	   58.1141 
    0.8164 	  105.8360 	    2.0000 	   47.0000 	   58.1541 
    0.8164 	  105.8770 	    2.0000 	   47.0000 	   58.1951 
    0.8621 	  105.9170 	    2.0000 	   47.0000 	   58.2351 
    0.9689 	  105.9560 	    2.0000 	   47.0000 	   58.2741 
    0.8927 	  106.0000 	    2.0000 	   47.0000 	   58.3181 
    0.9079 	  106.0430 	    2.0000 	   47.0000 	   58.3611 
    0.9384 	  106.0850 	    2.0000 	   47.0000 	   58.4032 
    0.8164 	  106.1260 	    2.0000 	   47.0000 	   58.4442 
    0.8774 	  106.1690 	    2.0000 	   47.0000 	   58.4872 
    0.8469 	  106.2150 	    2.0000 	   47.0000 	   58.5332 
    0.9537 	  106.2600 	    2.0000 	   47.0000 	   58.5782 
    0.8621 	  106.3030 	    2.0000 	   47.0000 	   58.6212 
    0.7858 	  106.3480 	    2.0000 	   47.0000 	   58.6662 
    0.8469 	  106.3920 	    2.0000 	   47.0000 	   58.7102 
    0.9079 	  106.4370 	    2.0000 	   47.0000 	   58.7552 
    0.8774 	  106.4810 	    2.0000 	   47.0000 	   58.7992 
    0.9079 	  106.5280 	    2.0000 	   47.0000 	   58.8462 
    0.8316 	  106.5710 	    2.0000 	   47.0000 	   58.8892 
    0.8469 	  106.6130 	    2.0000 	   47.0000 	   58.9312 
    0.8011 	  106.6550 	    2.0000 	   47.0000 	   58.9732 
    0.6943 	  106.6940 	    2.0000 	   47.0000 	   59.0122 
    0.8774 	  106.7350 	    2.0000 	   47.0000 	   59.0532 
    0.8164 	  106.7750 	    2.0000 	   47.0000 	   59.0932 
    0.7401 	  106.8140 	    2.0000 	   47.0000 	   59.1322 
    0.7553 	  106.8570 	    2.0000 	   47.0000 	   59.1752 
    0.9232 	  106.9020 	    2.0000 	   47.0000 	   59.2202 
    0.8469 	  106.9440 	    2.0000 	   47.0000 	   59.2622 
    0.7553 	  106.9850 	    2.0000 	   47.0000 	   59.3032 
    0.8621 	  107.0250 	    2.0000 	   47.0000 	   59.3432 
    0.8927 	  107.0660 	    2.0000 	   47.0000 	   59.3842 
    0.9842 	  107.1050 	    2.0000 	   47.0000 	   59.4232 
    0.7553 	  107.1510 	    2.0000 	   47.0000 	   59.4692 
    0.7706 	  107.1970 	    2.0000 	   47.0000 	   59.5142 
    0.6790 	  107.2380 	    2.0000 	   47.0000 	   59.5562 
    0.8621 	  107.2770 	    2.0000 	   47.0000 	   59.5952 
    0.7553 	  107.3170 	    2.0000 	   47.0000 	   59.6352 
    0.9232 	  107.3570 	    2.0000 	   47.0000 	   59.6752 
    1.0147 	  107.3970 	    2.0000 	   47.0000 	   59.7152 
    0.8316 	  107.4380 	    2.0000 	   47.0000 	   59.7562 
    0.8927 	  107.4780 	    2.0000 	   47.0000 	   59.7962 
    0.7553 	  107.5190 	    2.0000 	   47.0000 	   59.8372 
    0.8011 	  107.5590 	    2.0000 	   47.0000 	   59.8772 
    0.9537 	  107.6030 	    2.0000 	   47.0000 	   59.9212 
    0.7553 	  107.6460 	    2.0000 	   47.0000 	   59.9642 
    0.8316 	  107.6860 	    2.0000 	   48.0000 	    0.0042 
    0.8011 	  107.7270 	    2.0000 	   48.0000 	    0.0452 
    0.7553 	  107.7670 	    2.0000 	   48.0000 	    0.0852 
    0.7553 	  107.8080 	    2.0000 	   48.0000 	    0.1263 
    0.7858 	  107.8490 	    2.0000 	   48.0000 	    0.1673 
    0.7706 	  107.8880 	    2.0000 	   48.0000 	    0.2063 
    0.8621 	  107.9310 	    2.0000 	   48.0000 	    0.2493 
    0.7095 	  107.9710 	    2.0000 	   48.0000 	    0.2893 
    0.7401 	  108.0110 	    2.0000 	   48.0000 	    0.3293 
    0.8316 	  108.0500 	    2.0000 	   48.0000 	    0.3683 
    0.7858 	  108.0900 	    2.0000 	   48.0000 	    0.4083 
    0.7858 	  108.1300 	    2.0000 	   48.0000 	    0.4483 
    0.8164 	  108.1690 	    2.0000 	   48.0000 	    0.4873 
    0.8164 	  108.2090 	    2.0000 	   48.0000 	    0.5273 
    0.6027 	  108.2510 	    2.0000 	   48.0000 	    0.5693 
    0.9232 	  108.2910 	    2.0000 	   48.0000 	    0.6093 
    0.6332 	  108.3310 	    2.0000 	   48.0000 	    0.6493 
    0.8774 	  108.3720 	    2.0000 	   48.0000 	    0.6903 
    0.7401 	  108.4130 	    2.0000 	   48.0000 	    0.7313 
    0.7401 	  108.4530 	    2.0000 	   48.0000 	    0.7713 
    0.8011 	  108.4940 	    2.0000 	   48.0000 	    0.8123 
    0.7858 	  108.5350 	    2.0000 	   48.0000 	    0.8533 
    0.8164 	  108.5770 	    2.0000 	   48.0000 	    0.8953 
    0.6943 	  108.6180 	    2.0000 	   48.0000 	    0.9363 
    0.8316 	  108.6570 	    2.0000 	   48.0000 	    0.9753 
    0.8774 	  108.6980 	    2.0000 	   48.0000 	    1.0163 
    0.7248 	  108.7370 	    2.0000 	   48.0000 	    1.0553 
    0.6790 	  108.7780 	    2.0000 	   48.0000 	    1.0963 
    0.8469 	  108.8190 	    2.0000 	   48.0000 	    1.1373 
    0.7248 	  108.8650 	    2.0000 	   48.0000 	    1.1833 
    0.6790 	  108.9080 	    2.0000 	   48.0000 	    1.2263 
    0.8469 	  108.9490 	    2.0000 	   48.0000 	    1.2673 
    0.9232 	  108.9890 	    2.0000 	   48.0000 	    1.3073 
    0.8316 	  109.0290 	    2.0000 	   48.0000 	    1.3473 
    0.7248 	  109.0700 	    2.0000 	   48.0000 	    1.3883 
    0.6943 	  109.1100 	    2.0000 	   48.0000 	    1.4283 
    0.6180 	  109.1500 	    2.0000 	   48.0000 	    1.4683 
    0.8621 	  109.1930 	    2.0000 	   48.0000 	    1.5113 
    0.6332 	  109.2360 	    2.0000 	   48.0000 	    1.5543 
    0.6790 	  109.2770 	    2.0000 	   48.0000 	    1.5953 
    0.8469 	  109.3180 	    2.0000 	   48.0000 	    1.6363 
    0.8621 	  109.3580 	    2.0000 	   48.0000 	    1.6763 
    0.7401 	  109.3980 	    2.0000 	   48.0000 	    1.7163 
    0.4959 	  109.4390 	    2.0000 	   48.0000 	    1.7573 
    0.7553 	  109.4790 	    2.0000 	   48.0000 	    1.7973 
    0.7401 	  109.5190 	    2.0000 	   48.0000 	    1.8373 
    0.8927 	  109.5600 	    2.0000 	   48.0000 	    1.8784 
    0.8316 	  109.6010 	    2.0000 	   48.0000 	    1.9184 
    0.8469 	  109.6410 	    2.0000 	   48.0000 	    1.9584 
    0.8164 	  109.6820 	    2.0000 	   48.0000 	    1.9994 
    0.6638 	  109.7230 	    2.0000 	   48.0000 	    2.0404 
    0.7248 	  109.7640 	    2.0000 	   48.0000 	    2.0814 
    0.5875 	  109.8040 	    2.0000 	   48.0000 	    2.1214 
    0.5722 	  109.8450 	    2.0000 	   48.0000 	    2.1624 
    0.7095 	  109.8850 	    2.0000 	   48.0000 	    2.2024 
    0.8316 	  109.9260 	    2.0000 	   48.0000 	    2.2434 
    0.6027 	  109.9660 	    2.0000 	   48.0000 	    2.2834 
    0.7248 	  110.0070 	    2.0000 	   48.0000 	    2.3244 
    0.6790 	  110.0490 	    2.0000 	   48.0000 	    2.3664 
    0.7706 	  110.0950 	    2.0000 	   48.0000 	    2.4124 
    0.6027 	  110.1380 	    2.0000 	   48.0000 	    2.4554 
    0.5722 	  110.1820 	    2.0000 	   48.0000 	    2.4994 
    0.7553 	  110.2280 	    2.0000 	   48.0000 	    2.5454 
    0.7706 	  110.2730 	    2.0000 	   48.0000 	    2.5904 
    0.8774 	  110.3200 	    2.0000 	   48.0000 	    2.6374 
    0.3738 	  110.3650 	    2.0000 	   48.0000 	    2.6824 
    0.6332 	  110.4130 	    2.0000 	   48.0000 	    2.7304 
    0.6485 	  110.4570 	    2.0000 	   48.0000 	    2.7744 
    0.6943 	  110.5010 	    2.0000 	   48.0000 	    2.8184 
    0.7553 	  110.5460 	    2.0000 	   48.0000 	    2.8634 
    0.6943 	  110.5910 	    2.0000 	   48.0000 	    2.9084 
    0.7401 	  110.6360 	    2.0000 	   48.0000 	    2.9534 
    0.6180 	  110.6830 	    2.0000 	   48.0000 	    3.0004 
    0.6790 	  110.7290 	    2.0000 	   48.0000 	    3.0464 
    0.5875 	  110.7750 	    2.0000 	   48.0000 	    3.0924 
    0.8469 	  110.8210 	    2.0000 	   48.0000 	    3.1384 
    0.8011 	  110.8670 	    2.0000 	   48.0000 	    3.1844 
    0.6943 	  110.9110 	    2.0000 	   48.0000 	    3.2284 
    0.7553 	  110.9550 	    2.0000 	   48.0000 	    3.2724 
    0.5875 	  111.0010 	    2.0000 	   48.0000 	    3.3184 
    0.5722 	  111.0410 	    2.0000 	   48.0000 	    3.3584 
    0.7553 	  111.0810 	    2.0000 	   48.0000 	    3.3984 
    0.7248 	  111.1220 	    2.0000 	   48.0000 	    3.4394 
    0.6180 	  111.1640 	    2.0000 	   48.0000 	    3.4814 
    0.7401 	  111.2050 	    2.0000 	   48.0000 	    3.5224 
    0.8316 	  111.2450 	    2.0000 	   48.0000 	    3.5624 
    0.7095 	  111.2860 	    2.0000 	   48.0000 	    3.6035 
    0.6332 	  111.3400 	    2.0000 	   48.0000 	    3.6575 
    0.6790 	  111.3820 	    2.0000 	   48.0000 	    3.6995 
    0.6790 	  111.4270 	    2.0000 	   48.0000 	    3.7445 
    0.7553 	  111.4700 	    2.0000 	   48.0000 	    3.7875 
    0.7858 	  111.5160 	    2.0000 	   48.0000 	    3.8335 
    0.5875 	  111.5610 	    2.0000 	   48.0000 	    3.8785 
    0.8011 	  111.6030 	    2.0000 	   48.0000 	    3.9205 
    0.6638 	  111.6450 	    2.0000 	   48.0000 	    3.9625 
    0.6180 	  111.6860 	    2.0000 	   48.0000 	    4.0035 
    0.5722 	  111.7250 	    2.0000 	   48.0000 	    4.0425 
    0.6943 	  111.7690 	    2.0000 	   48.0000 	    4.0865 
    0.6485 	  111.8110 	    2.0000 	   48.0000 	    4.1285 
    0.6943 	  111.8520 	    2.0000 	   48.0000 	    4.1695 
    0.6180 	  111.8920 	    2.0000 	   48.0000 	    4.2095 
    0.7553 	  111.9360 	    2.0000 	   48.0000 	    4.2535 
    0.6180 	  111.9780 	    2.0000 	   48.0000 	    4.2955 
    0.5417 	  112.0200 	    2.0000 	   48.0000 	    4.3375 
    0.6943 	  112.0600 	    2.0000 	   48.0000 	    4.3775 
    0.7706 	  112.1030 	    2.0000 	   48.0000 	    4.4205 
    0.5570 	  112.1440 	    2.0000 	   48.0000 	    4.4615 
    0.6332 	  112.1850 	    2.0000 	   48.0000 	    4.5025 
    0.8011 	  112.2250 	    2.0000 	   48.0000 	    4.5425 
    0.7858 	  112.2660 	    2.0000 	   48.0000 	    4.5835 
    0.7401 	  112.3060 	    2.0000 	   48.0000 	    4.6235 
    0.6332 	  112.3470 	    2.0000 	   48.0000 	    4.6645 
    0.6943 	  112.3890 	    2.0000 	   48.0000 	    4.7065 
    0.6332 	  112.4290 	    2.0000 	   48.0000 	    4.7465 
    0.7553 	  112.4690 	    2.0000 	   48.0000 	    4.7865 
    0.7553 	  112.5100 	    2.0000 	   48.0000 	    4.8275 
    0.7095 	  112.5510 	    2.0000 	   48.0000 	    4.8685 
    0.6485 	  112.5950 	    2.0000 	   48.0000 	    4.9125 
    0.6790 	  112.6360 	    2.0000 	   48.0000 	    4.9535 
    0.6638 	  112.6750 	    2.0000 	   48.0000 	    4.9925 
    0.6943 	  112.7170 	    2.0000 	   48.0000 	    5.0345 
    0.6943 	  112.7570 	    2.0000 	   48.0000 	    5.0745 
    0.7248 	  112.7990 	    2.0000 	   48.0000 	    5.1165 
    0.6332 	  112.8390 	    2.0000 	   48.0000 	    5.1565 
    0.5875 	  112.8810 	    2.0000 	   48.0000 	    5.1985 
    0.7248 	  112.9220 	    2.0000 	   48.0000 	    5.2395 
    0.5417 	  112.9620 	    2.0000 	   48.0000 	    5.2795 
    0.6485 	  113.0020 	    2.0000 	   48.0000 	    5.3195 
    0.8316 	  113.0420 	    2.0000 	   48.0000 	    5.3596 
    0.6180 	  113.0830 	    2.0000 	   48.0000 	    5.4006 
    0.5264 	  113.1240 	    2.0000 	   48.0000 	    5.4416 
    0.6485 	  113.1660 	    2.0000 	   48.0000 	    5.4836 
    0.8927 	  113.2070 	    2.0000 	   48.0000 	    5.5246 
    0.7248 	  113.2480 	    2.0000 	   48.0000 	    5.5656 
    0.7706 	  113.2930 	    2.0000 	   48.0000 	    5.6106 
    0.5875 	  113.3410 	    2.0000 	   48.0000 	    5.6586 
    0.6027 	  113.3810 	    2.0000 	   48.0000 	    5.6986 
    0.7553 	  113.4230 	    2.0000 	   48.0000 	    5.7406 
    0.3738 	  113.4690 	    2.0000 	   48.0000 	    5.7866 
    0.4349 	  113.5140 	    2.0000 	   48.0000 	    5.8316 
    0.6027 	  113.5600 	    2.0000 	   48.0000 	    5.8776 
    0.6790 	  113.6030 	    2.0000 	   48.0000 	    5.9206 
    0.8927 	  113.6450 	    2.0000 	   48.0000 	    5.9626 
    0.6485 	  113.6930 	    2.0000 	   48.0000 	    6.0106 
    0.8011 	  113.7400 	    2.0000 	   48.0000 	    6.0576 
    0.5875 	  113.7850 	    2.0000 	   48.0000 	    6.1026 
    0.5722 	  113.8300 	    2.0000 	   48.0000 	    6.1476 
    0.6027 	  113.8760 	    2.0000 	   48.0000 	    6.1936 
    0.7553 	  113.9200 	    2.0000 	   48.0000 	    6.2376 
    0.6638 	  113.9650 	    2.0000 	   48.0000 	    6.2826 
    0.5722 	  114.0100 	    2.0000 	   48.0000 	    6.3276 
    0.6790 	  114.0550 	    2.0000 	   48.0000 	    6.3726 
    0.5875 	  114.1000 	    2.0000 	   48.0000 	    6.4176 
    0.5722 	  114.1460 	    2.0000 	   48.0000 	    6.4636 
    0.6790 	  114.1920 	    2.0000 	   48.0000 	    6.5096 
    0.5722 	  114.2360 	    2.0000 	   48.0000 	    6.5536 
    0.8011 	  114.2820 	    2.0000 	   48.0000 	    6.5996 
    0.6638 	  114.3280 	    2.0000 	   48.0000 	    6.6456 
    0.6027 	  114.3740 	    2.0000 	   48.0000 	    6.6916 
    0.5112 	  114.4180 	    2.0000 	   48.0000 	    6.7356 
    0.5570 	  114.4650 	    2.0000 	   48.0000 	    6.7826 
    0.5570 	  114.5090 	    2.0000 	   48.0000 	    6.8266 
    0.6485 	  114.5530 	    2.0000 	   48.0000 	    6.8706 
    0.7401 	  114.5990 	    2.0000 	   48.0000 	    6.9166 
    0.4349 	  114.6430 	    2.0000 	   48.0000 	    6.9606 
    0.4349 	  114.6890 	    2.0000 	   48.0000 	    7.0066 
    0.7553 	  114.7300 	    2.0000 	   48.0000 	    7.0476 
    0.6180 	  114.7720 	    2.0000 	   48.0000 	    7.0896 
    0.5875 	  114.8130 	    2.0000 	   48.0000 	    7.1307 
    0.5417 	  114.8550 	    2.0000 	   48.0000 	    7.1727 
    0.5570 	  114.8950 	    2.0000 	   48.0000 	    7.2127 
    0.7401 	  114.9390 	    2.0000 	   48.0000 	    7.2567 
    0.6485 	  114.9850 	    2.0000 	   48.0000 	    7.3027 
    0.5570 	  115.0280 	    2.0000 	   48.0000 	    7.3457 
    0.5417 	  115.0700 	    2.0000 	   48.0000 	    7.3877 
    0.7095 	  115.1150 	    2.0000 	   48.0000 	    7.4327 
    0.5264 	  115.1550 	    2.0000 	   48.0000 	    7.4727 
    0.6638 	  115.1980 	    2.0000 	   48.0000 	    7.5157 
    0.6332 	  115.2410 	    2.0000 	   48.0000 	    7.5587 
    0.6790 	  115.2830 	    2.0000 	   48.0000 	    7.6007 
    0.6790 	  115.3230 	    2.0000 	   48.0000 	    7.6407 
    0.4959 	  115.3710 	    2.0000 	   48.0000 	    7.6887 
    0.5570 	  115.4130 	    2.0000 	   48.0000 	    7.7307 
    0.7248 	  115.4550 	    2.0000 	   48.0000 	    7.7727 
    0.5264 	  115.5010 	    2.0000 	   48.0000 	    7.8187 
    0.6485 	  115.5490 	    2.0000 	   48.0000 	    7.8667 
    0.5570 	  115.5940 	    2.0000 	   48.0000 	    7.9117 
    0.6790 	  115.6410 	    2.0000 	   48.0000 	    7.9587 
    0.7706 	  115.6880 	    2.0000 	   48.0000 	    8.0057 
    0.6638 	  115.7340 	    2.0000 	   48.0000 	    8.0517 
    0.6638 	  115.7800 	    2.0000 	   48.0000 	    8.0977 
    0.5722 	  115.8260 	    2.0000 	   48.0000 	    8.1437 
    0.6943 	  115.8720 	    2.0000 	   48.0000 	    8.1897 
    0.5264 	  115.9170 	    2.0000 	   48.0000 	    8.2347 
    0.5112 	  115.9630 	    2.0000 	   48.0000 	    8.2807 
    0.6485 	  116.0090 	    2.0000 	   48.0000 	    8.3267 
    0.5417 	  116.0560 	    2.0000 	   48.0000 	    8.3737 
    0.6027 	  116.1010 	    2.0000 	   48.0000 	    8.4187 
    0.7553 	  116.1470 	    2.0000 	   48.0000 	    8.4647 
    0.6943 	  116.1930 	    2.0000 	   48.0000 	    8.5107 
    0.7401 	  116.2410 	    2.0000 	   48.0000 	    8.5587 
    0.6180 	  116.2850 	    2.0000 	   48.0000 	    8.6027 
    0.5722 	  116.3320 	    2.0000 	   48.0000 	    8.6497 
    0.6790 	  116.3760 	    2.0000 	   48.0000 	    8.6937 
    0.4959 	  116.4200 	    2.0000 	   48.0000 	    8.7377 
    0.6332 	  116.4630 	    2.0000 	   48.0000 	    8.7807 
    0.5417 	  116.5080 	    2.0000 	   48.0000 	    8.8257 
    0.7553 	  116.5550 	    2.0000 	   48.0000 	    8.8728 
    0.7248 	  116.6000 	    2.0000 	   48.0000 	    8.9178 
    0.6027 	  116.6440 	    2.0000 	   48.0000 	    8.9618 
    0.6332 	  116.6870 	    2.0000 	   48.0000 	    9.0048 
    0.6027 	  116.7290 	    2.0000 	   48.0000 	    9.0468 
    0.5875 	  116.7720 	    2.0000 	   48.0000 	    9.0898 
    0.4959 	  116.8120 	    2.0000 	   48.0000 	    9.1298 
